time (s)	coil I (A)	last det (V)	int current (uC)
3112.867786	0.951002	0.167476	420.342957
3112.868683	0.655082	0.167476	1007.951294
3112.869650	0.103114	0.167476	1107.662598
3112.870551	0.097577	0.167476	1195.579346
3112.871448	0.097687	0.167476	1283.204346
3112.872374	0.097738	0.167476	1373.709717
3112.873283	0.097833	0.167476	1462.640137
3112.874188	0.097771	0.167476	1551.122925
3112.875078	0.097665	0.167476	1638.044556
3112.876036	0.097734	0.167476	1731.674072
3112.876940	0.097749	0.167476	1820.039185
3112.877843	0.097756	0.167476	1908.313110
3113.813734	0.978069	0.125497	452.845886
3113.814636	0.629685	0.125497	1020.821777
3113.815575	0.104703	0.125497	1119.138184
3113.816484	0.097676	0.125497	1207.925537
3113.817394	0.097683	0.125497	1296.817139
3113.818291	0.097712	0.125497	1384.465210
3113.819216	0.097764	0.125497	1474.896606
3113.820122	0.097830	0.125497	1563.530273
3113.821028	0.097723	0.125497	1652.067627
3113.821918	0.097716	0.125497	1739.034912
3113.822867	0.097797	0.125497	1831.843872
3113.823777	0.097731	0.125497	1920.778809
3114.938569	0.965801	0.160458	424.952362
3114.939556	0.557479	0.160458	975.184448
3114.940460	0.102220	0.160458	1067.591797
3114.941355	0.097639	0.160458	1154.978882
3114.942284	0.097734	0.160458	1245.774170
3114.943195	0.097782	0.160458	1334.853516
3114.944098	0.097676	0.160458	1423.054687
3114.944986	0.097727	0.160458	1509.836304
3114.945922	0.097830	0.160458	1601.404785
3114.946831	0.097727	0.160458	1690.238647
3114.947732	0.097668	0.160458	1778.237915
3114.948620	0.097690	0.160458	1864.987061
3115.878905	0.993541	0.133009	480.873962
3115.879830	0.570699	0.133009	1008.770935
3115.880729	0.102832	0.133009	1101.216919
3115.881617	0.097654	0.133009	1187.933472
3115.882562	0.097775	0.133009	1280.330566
3115.883468	0.097756	0.133009	1368.897827
3115.884363	0.097639	0.133009	1456.284912
3115.885276	0.097701	0.133009	1545.486328
3115.886206	0.097690	0.133009	1636.338379
3115.887116	0.097610	0.133009	1725.163330
3115.888011	0.097672	0.133009	1812.579834
3115.888934	0.097720	0.133009	1902.775146
3117.009629	0.971060	0.150388	436.005737
3117.010532	0.642960	0.150388	1016.598816
3117.011421	0.105359	0.150388	1110.262817
3117.012388	0.097621	0.150388	1204.662231
3117.013291	0.097661	0.150388	1292.850220
3117.014191	0.097668	0.150388	1380.751831
3117.015085	0.097646	0.150388	1468.047729
3117.016029	0.097756	0.150388	1560.329712
3117.016942	0.097595	0.150388	1649.434082
3117.017842	0.097657	0.150388	1737.325806
3117.018774	0.097665	0.150388	1828.349365
3117.019681	0.097727	0.150388	1916.987793
3117.944271	0.950815	0.143846	419.309601
3117.945163	0.664882	0.143846	1012.384033
3117.946104	0.103975	0.143846	1110.224121
3117.947011	0.097617	0.143846	1198.762939
3117.947899	0.097731	0.143846	1285.547852
3117.948835	0.097811	0.143846	1377.099243
3117.949735	0.097808	0.143846	1465.126099
3117.950639	0.097749	0.143846	1553.491211
3117.951527	0.097745	0.143846	1640.289062
3117.952471	0.097760	0.143846	1732.574463
3117.953384	0.097712	0.143846	1821.785889
3117.954273	0.097764	0.143846	1908.697754
3119.079900	0.972532	0.156410	438.611816
3119.080810	0.632930	0.156410	1014.577820
3119.081702	0.104945	0.156410	1108.188843
3119.082666	0.097683	0.156410	1202.355347
3119.083568	0.097753	0.156410	1290.528320
3119.084484	0.097738	0.156410	1380.056396
3119.085376	0.097668	0.156410	1467.176636
3119.086330	0.097738	0.156410	1560.418701
3119.087234	0.097665	0.156410	1648.707642
3119.088128	0.097639	0.156410	1735.997070
3119.089056	0.097683	0.156410	1826.646973
3119.089968	0.097592	0.156410	1915.650513
3120.011225	0.961538	0.139527	427.884460
3120.012121	0.652200	0.139527	1012.255371
3120.013089	0.102986	0.139527	1111.945679
3120.013982	0.097533	0.139527	1199.042603
3120.014869	0.097705	0.139527	1285.707031
3120.015798	0.097709	0.139527	1376.478394
3120.016730	0.097665	0.139527	1467.501953
3120.017633	0.097709	0.139527	1555.732910
3120.018520	0.097723	0.139527	1642.413574
3120.019452	0.097709	0.139527	1733.478149
3120.020367	0.097643	0.139527	1822.821289
3120.021284	0.097760	0.139527	1912.467163
3121.149956	1.004744	0.148712	489.310181
3121.150859	0.581499	0.148712	1014.403809
3121.151789	0.102308	0.148712	1109.550537
3121.152679	0.097628	0.148712	1196.439575
3121.153630	0.097650	0.148712	1289.304810
3121.154549	0.097679	0.148712	1379.072266
3121.155439	0.097676	0.148712	1466.003662
3121.156389	0.097643	0.148712	1558.764282
3121.157288	0.097683	0.148712	1646.581421
3121.158175	0.097654	0.148712	1733.200317
3121.159117	0.097782	0.148712	1825.310913
3121.160017	0.097603	0.148712	1913.153198
3122.078943	0.973685	0.145070	441.079437
3122.079876	0.604146	0.145070	1004.747192
3122.080770	0.103799	0.145070	1097.543335
3122.081709	0.097614	0.145070	1189.202393
3122.082612	0.097646	0.145070	1277.377197
3122.083512	0.097646	0.145070	1365.259033
3122.084401	0.097676	0.145070	1452.092773
3122.085347	0.097679	0.145070	1544.497559
3122.086250	0.097661	0.145070	1632.685547
3122.087147	0.097643	0.145070	1720.271118
3122.088073	0.097701	0.145070	1810.742676
3122.088984	0.097731	0.145070	1899.775391
3123.218928	0.993516	0.143588	466.952301
3123.219832	0.619578	0.143588	1027.050537
3123.220718	0.104799	0.143588	1119.902100
3123.221685	0.097668	0.143588	1214.347534
3123.222594	0.097749	0.143588	1303.201416
3123.223498	0.097731	0.143588	1391.550049
3123.224387	0.097712	0.143588	1478.416382
3123.225332	0.097742	0.143588	1570.782227
3123.226238	0.097679	0.143588	1659.279785
3123.227136	0.097657	0.143588	1746.976196
3123.228076	0.097705	0.143588	1838.818970
3123.228974	0.097734	0.143588	1926.584473
3124.147144	0.948142	0.150951	411.493683
3124.148088	0.614963	0.150951	992.019165
3124.149005	0.103162	0.150951	1086.618408
3124.149907	0.097625	0.150951	1174.675781
3124.150794	0.097646	0.150951	1261.288208
3124.151736	0.097804	0.150951	1353.419556
3124.152650	0.097650	0.150951	1442.671753
3124.153545	0.097672	0.150951	1530.088257
3124.154461	0.097661	0.150951	1619.545898
3124.155380	0.097705	0.150951	1709.336914
3124.156285	0.097705	0.150951	1797.760010
3124.157182	0.097760	0.150951	1885.450684
3125.284847	0.989934	0.144792	462.299225
3125.285768	0.593214	0.144792	1008.649414
3125.286672	0.103484	0.144792	1102.198853
3125.287562	0.097679	0.144792	1189.133545
3125.288488	0.097826	0.144792	1279.720337
3125.289399	0.097778	0.144792	1368.796387
3125.290293	0.097771	0.144792	1456.203613
3125.291225	0.097797	0.144792	1547.350098
3125.292132	0.097826	0.144792	1636.078247
3125.293038	0.097760	0.144792	1724.648804
3125.293922	0.097683	0.144792	1811.000732
3125.294868	0.097753	0.144792	1903.474731
3126.218233	0.989539	0.151693	480.915741
3126.219169	0.553912	0.151693	999.377686
3126.220067	0.102407	0.151693	1091.339355
3126.220961	0.097592	0.151693	1178.586182
3126.221913	0.097679	0.151693	1271.577026
3126.222811	0.097617	0.151693	1359.237305
3126.223735	0.097625	0.151693	1449.442383
3126.224627	0.097665	0.151693	1536.559326
3126.225572	0.097672	0.151693	1628.859497
3126.226469	0.097650	0.151693	1716.451660
3126.227356	0.097679	0.151693	1803.093384
3126.228300	0.097698	0.151693	1895.320068
3127.351500	0.964351	0.140804	427.207306
3127.352494	0.541494	0.140804	965.452515
3127.353387	0.102070	0.140804	1056.601318
3127.354277	0.097548	0.140804	1143.418701
3127.355211	0.097650	0.140804	1234.623901
3127.356121	0.097701	0.140804	1323.532227
3127.357040	0.097665	0.140804	1413.286133
3127.357932	0.097679	0.140804	1500.416260
3127.358888	0.097690	0.140804	1593.808350
3127.359796	0.097690	0.140804	1682.511230
3127.360690	0.097712	0.140804	1769.866089
3127.361635	0.097683	0.140804	1862.176636
3128.288475	0.964764	0.156555	429.320129
3128.289385	0.643564	0.156555	1014.963806
3128.290275	0.105293	0.156555	1108.674561
3128.291235	0.097672	0.156555	1202.439819
3128.292132	0.097617	0.156555	1290.002441
3128.293035	0.097727	0.156555	1378.250000
3128.293925	0.097701	0.156555	1465.204224
3128.294870	0.097764	0.156555	1557.590942
3128.295781	0.097661	0.156555	1646.560181
3128.296675	0.097657	0.156555	1733.865967
3128.297610	0.097815	0.156555	1825.322998
3128.298511	0.097753	0.156555	1913.398193
3129.417725	1.009885	0.143120	485.754822
3129.418652	0.567924	0.143120	1012.219971
3129.419554	0.102660	0.143120	1104.819214
3129.420441	0.097657	0.143120	1191.441406
3129.421394	0.097709	0.143120	1284.557861
3129.422297	0.097687	0.143120	1372.769043
3129.423191	0.097661	0.143120	1460.078125
3129.424118	0.097749	0.143120	1550.691406
3129.425026	0.097734	0.143120	1639.434204
3129.425926	0.097690	0.143120	1727.355591
3129.426815	0.097603	0.143120	1814.124268
3129.427767	0.097701	0.143120	1907.135986
3130.359753	0.945209	0.153630	409.275391
3130.360697	0.633292	0.153630	1007.103271
3130.361615	0.103213	0.153630	1101.852661
3130.362517	0.097551	0.153630	1189.843872
3130.363404	0.097643	0.153630	1276.453003
3130.364354	0.097698	0.153630	1369.265869
3130.365257	0.097654	0.153630	1457.447266
3130.366154	0.097672	0.153630	1545.059204
3130.367041	0.097679	0.153630	1631.700928
3130.367973	0.097709	0.153630	1722.765503
3130.368879	0.097687	0.153630	1811.269775
3130.369778	0.097709	0.153630	1899.109985
3131.483084	0.947985	0.137807	413.321289
3131.484029	0.615740	0.137807	995.195374
3131.484930	0.103627	0.137807	1088.562988
3131.485838	0.097632	0.137807	1177.212646
3131.486731	0.097661	0.137807	1264.424072
3131.487661	0.097815	0.137807	1355.391968
3131.488576	0.097679	0.137807	1444.768677
3131.489473	0.097734	0.137807	1532.436401
3131.490379	0.097756	0.137807	1621.003662
3131.491304	0.097771	0.137807	1711.441895
3131.492213	0.097716	0.137807	1800.265747
3131.493100	0.097679	0.137807	1886.907471
3132.429517	0.953134	0.157876	419.378754
3132.430417	0.660557	0.157876	1013.879761
3132.431354	0.105630	0.157876	1112.854980
3132.432260	0.097562	0.157876	1201.246338
3132.433155	0.097694	0.157876	1288.682495
3132.434065	0.097709	0.157876	1377.597412
3132.434995	0.097709	0.157876	1468.466553
3132.435891	0.097694	0.157876	1556.000488
3132.436781	0.097705	0.157876	1642.958008
3132.437717	0.097749	0.157876	1734.451050
3132.438635	0.097672	0.157876	1824.114014
3132.439534	0.097709	0.157876	1911.954224
3133.549518	0.951855	0.140156	415.009003
3133.550459	0.619464	0.140156	997.924683
3133.551370	0.103341	0.140156	1092.068359
3133.552274	0.097614	0.140156	1180.311035
3133.553167	0.097683	0.140156	1267.541992
3133.554123	0.097804	0.140156	1361.042603
3133.555036	0.097775	0.140156	1450.310913
3133.555929	0.097646	0.140156	1537.509277
3133.556834	0.097749	0.140156	1625.972168
3133.557753	0.097793	0.140156	1715.843872
3133.558657	0.097712	0.140156	1804.175903
3133.559555	0.097723	0.140156	1891.931519
3134.500060	0.963739	0.159153	437.537537
3134.501005	0.582843	0.159153	988.324158
3134.501917	0.102997	0.159153	1082.257324
3134.502808	0.097584	0.159153	1169.204834
3134.503763	0.097657	0.159153	1262.467773
3134.504660	0.097727	0.159153	1350.128906
3134.505565	0.097617	0.159153	1438.472412
3134.506460	0.097599	0.159153	1525.823364
3134.507404	0.097698	0.159153	1618.050049
3134.508311	0.097749	0.159153	1706.708374
3134.509208	0.097588	0.159153	1794.244751
3134.510127	0.097665	0.159153	1883.998657
3135.616454	0.955485	0.141259	415.635773
3135.617421	0.579115	0.141259	975.639893
3135.618335	0.102689	0.141259	1069.497803
3135.619234	0.097636	0.141259	1157.272095
3135.620169	0.097764	0.141259	1248.681152
3135.621075	0.097775	0.141259	1337.265015
3135.621976	0.097716	0.141259	1425.307129
3135.622867	0.097599	0.141259	1512.267700
3135.623809	0.097778	0.141259	1604.374878
3135.624713	0.097639	0.141259	1692.640625
3135.625609	0.097712	0.141259	1780.190918
3135.626495	0.097694	0.141259	1866.747925
3136.569291	0.949695	0.154561	415.016632
3136.570242	0.606394	0.154561	991.697388
3136.571155	0.103268	0.154561	1085.980957
3136.572056	0.097632	0.154561	1173.947266
3136.572942	0.097654	0.154561	1260.468506
3136.573901	0.097727	0.154561	1354.188721
3136.574806	0.097694	0.154561	1442.601929
3136.575693	0.097646	0.154561	1529.214355
3136.576634	0.097694	0.154561	1621.144531
3136.577544	0.097745	0.154561	1710.092773
3136.578460	0.097625	0.154561	1799.516846
3136.579363	0.097588	0.154561	1887.638672
3137.684718	0.986517	0.139221	460.703613
3137.685623	0.617798	0.139221	1019.810669
3137.686510	0.104572	0.139221	1112.565674
3137.687471	0.097625	0.139221	1206.382812
3137.688366	0.097676	0.139221	1293.802612
3137.689284	0.097687	0.139221	1383.479004
3137.690179	0.097738	0.139221	1470.954590
3137.691118	0.097745	0.139221	1562.737427
3137.692022	0.097668	0.139221	1651.029663
3137.692915	0.097687	0.139221	1738.263916
3137.693846	0.097793	0.139221	1829.309204
3137.694756	0.097668	0.139221	1918.187500
3138.636234	0.947666	0.159198	411.287079
3138.637127	0.658638	0.159198	999.450562
3138.638087	0.103462	0.159198	1098.774048
3138.638987	0.097665	0.159198	1186.672363
3138.639874	0.097683	0.159198	1273.317261
3138.640800	0.097625	0.159198	1363.717529
3138.641715	0.097694	0.159198	1453.107666
3138.642635	0.097749	0.159198	1543.036743
3138.643526	0.097632	0.159198	1630.026733
3138.644476	0.097665	0.159198	1722.808228
3138.645377	0.097687	0.159198	1810.823975
3138.646268	0.097701	0.159198	1897.875977
3139.752656	0.967115	0.138415	431.333496
3139.753636	0.545153	0.138415	965.583069
3139.754548	0.102177	0.138415	1058.768066
3139.755441	0.097566	0.138415	1145.894409
3139.756377	0.097712	0.138415	1237.353271
3139.757279	0.097705	0.138415	1325.483276
3139.758178	0.097639	0.138415	1413.260864
3139.759067	0.097683	0.138415	1500.101196
3139.760008	0.097705	0.138415	1592.041626
3139.760915	0.097731	0.138415	1680.683350
3139.761818	0.097745	0.138415	1768.947388
3139.762703	0.097764	0.138415	1855.468262
3140.703694	0.958037	0.156128	422.494354
3140.704625	0.623884	0.156128	1003.330566
3140.705521	0.104513	0.156128	1096.974121
3140.706471	0.097712	0.156128	1189.800903
3140.707372	0.097723	0.156128	1277.849731
3140.708274	0.097646	0.156128	1365.926880
3140.709154	0.097665	0.156128	1451.871948
3140.710088	0.097756	0.156128	1543.176392
3140.710995	0.097672	0.156128	1631.765015
3140.711888	0.097705	0.156128	1719.015625
3140.712796	0.097639	0.156128	1807.671997
3140.713728	0.097727	0.156128	1898.753662
3141.822921	0.961699	0.139370	422.185944
3141.823891	0.566832	0.139370	972.013184
3141.824799	0.102415	0.139370	1065.005615
3141.825693	0.097584	0.139370	1152.245972
3141.826636	0.097705	0.139370	1244.381836
3141.827549	0.097661	0.139370	1333.546387
3141.828451	0.097778	0.139370	1421.742432
3141.829341	0.097650	0.139370	1508.651123
3141.830292	0.097745	0.139370	1601.606934
3141.831200	0.097709	0.139370	1690.326416
3141.832091	0.097657	0.139370	1777.339233
3141.833017	0.097628	0.139370	1867.742920
3142.770918	0.969375	0.157381	441.065674
3142.771819	0.632648	0.157381	1011.081238
3142.772708	0.104982	0.157381	1104.409912
3142.773641	0.097646	0.157381	1195.514038
3142.774552	0.097716	0.157381	1284.533325
3142.775465	0.097665	0.157381	1373.701294
3142.776367	0.097709	0.157381	1461.834595
3142.777313	0.097661	0.157381	1554.222046
3142.778217	0.097734	0.157381	1642.573975
3142.779139	0.097786	0.157381	1732.732300
3142.780028	0.097742	0.157381	1819.624634
3142.780980	0.097650	0.157381	1912.587524
3143.893453	0.957312	0.139459	421.217316
3143.894378	0.639456	0.139459	1012.713745
3143.895277	0.104784	0.139459	1106.914551
3143.896220	0.097566	0.139459	1198.919189
3143.897128	0.097800	0.139459	1287.721802
3143.898029	0.097679	0.139459	1375.730957
3143.898913	0.097701	0.139459	1462.098999
3143.899850	0.097808	0.139459	1553.744751
3143.900766	0.097679	0.139459	1643.219116
3143.901657	0.097687	0.139459	1730.258057
3143.902588	0.097701	0.139459	1821.218018
3143.903496	0.097716	0.139459	1909.944214
3144.836317	0.968232	0.157969	431.831635
3144.837246	0.614945	0.157969	1003.115601
3144.838141	0.104004	0.157969	1096.199097
3144.839058	0.097657	0.157969	1185.750977
3144.839972	0.097782	0.157969	1275.123657
3144.840886	0.097731	0.157969	1364.449585
3144.841777	0.097639	0.157969	1451.446045
3144.842714	0.097822	0.157969	1543.105469
3144.843617	0.097676	0.157969	1631.306641
3144.844519	0.097690	0.157969	1719.423462
3144.845408	0.097705	0.157969	1806.283325
3144.846352	0.097833	0.157969	1898.637939
3145.964242	0.954232	0.140425	420.816406
3145.965140	0.662113	0.140425	1015.393921
3145.966108	0.103070	0.140425	1115.165771
3145.967013	0.097636	0.140425	1203.525879
3145.967912	0.097690	0.140425	1291.349609
3145.968799	0.097709	0.140425	1378.017212
3145.969748	0.097786	0.140425	1470.815796
3145.970657	0.097679	0.140425	1559.606445
3145.971554	0.097672	0.140425	1647.218384
3145.972480	0.097778	0.140425	1737.761108
3145.973386	0.097756	0.140425	1826.328369
3145.974288	0.097709	0.140425	1914.461670
3146.901709	0.952614	0.156430	420.102600
3146.902687	0.568638	0.156430	976.230225
3146.903598	0.102554	0.156430	1069.656616
3146.904494	0.097617	0.156430	1157.121582
3146.905384	0.097676	0.156430	1244.052979
3146.906324	0.097760	0.156430	1335.947388
3146.907233	0.097636	0.156430	1424.697998
3146.908131	0.097676	0.156430	1512.410889
3146.909062	0.097830	0.156430	1603.490234
3146.909967	0.097822	0.156430	1692.019409
3146.910867	0.097709	0.156430	1779.957275
3146.911752	0.097738	0.156430	1866.455444
3148.035271	0.948688	0.140990	411.730499
3148.036241	0.583348	0.140990	977.578491
3148.037156	0.102535	0.140990	1071.398437
3148.038056	0.097676	0.140990	1159.306641
3148.038943	0.097753	0.140990	1246.013306
3148.039887	0.097738	0.140990	1338.277954
3148.040781	0.097643	0.140990	1425.570679
3148.041673	0.097679	0.140990	1512.700684
3148.042603	0.097753	0.140990	1603.610718
3148.043503	0.097808	0.140990	1691.637573
3148.044405	0.097683	0.140990	1779.747681
3148.045294	0.097727	0.140990	1866.627075
3148.967128	0.962611	0.154960	426.436737
3148.968038	0.638489	0.154960	1007.461548
3148.968929	0.105132	0.154960	1101.134033
3148.969862	0.097559	0.154960	1192.156250
3148.970784	0.097584	0.154960	1282.128906
3148.971703	0.097577	0.154960	1371.802124
3148.972588	0.097606	0.154960	1458.183594
3148.973534	0.097701	0.154960	1550.609131
3148.974428	0.097738	0.154960	1637.986938
3148.975316	0.097614	0.154960	1724.667725
3148.976241	0.097683	0.154960	1815.024658
3148.977171	0.097614	0.154960	1905.805176
3150.105035	0.946783	0.142822	410.904022
3150.105937	0.652756	0.142822	999.690308
3150.106909	0.102803	0.142822	1099.614502
3150.107806	0.097639	0.142822	1187.196777
3150.108696	0.097679	0.142822	1274.131470
3150.109625	0.097738	0.142822	1364.930054
3150.110546	0.097738	0.142822	1454.946777
3150.111467	0.097705	0.142822	1544.933105
3150.112353	0.097745	0.142822	1631.535522
3150.113287	0.097804	0.142822	1722.884399
3150.114191	0.097687	0.142822	1811.193237
3150.115110	0.097698	0.142822	1900.977539
3151.033549	0.958777	0.152108	426.655670
3151.034448	0.656854	0.152108	1017.167603
3151.035394	0.105135	0.152108	1116.625732
3151.036291	0.097701	0.152108	1204.263916
3151.037189	0.097639	0.152108	1291.943848
3151.038073	0.097683	0.152108	1378.295654
3151.039001	0.097771	0.152108	1469.027100
3151.039910	0.097698	0.152108	1557.834351
3151.040817	0.097727	0.152108	1646.472778
3151.041718	0.097775	0.152108	1734.567749
3151.042648	0.097687	0.152108	1825.416504
3151.043559	0.097679	0.152108	1914.402466
3152.172749	0.956766	0.147620	422.890747
3152.173667	0.637676	0.147620	1008.277161
3152.174564	0.104813	0.147620	1102.294678
3152.175525	0.097679	0.147620	1196.164673
3152.176427	0.097701	0.147620	1284.291382
3152.177326	0.097668	0.147620	1372.095337
3152.178215	0.097687	0.147620	1458.938843
3152.179161	0.097819	0.147620	1551.475220
3152.180068	0.097643	0.147620	1640.037231
3152.180961	0.097709	0.147620	1727.291138
3152.181892	0.097709	0.147620	1818.257935
3152.182810	0.097661	0.147620	1907.910889
3153.101523	0.963494	0.148800	429.718201
3153.102481	0.577885	0.148800	983.331604
3153.103392	0.102704	0.148800	1076.894775
3153.104294	0.097610	0.148800	1164.938843
3153.105235	0.097668	0.148800	1256.844849
3153.106137	0.097738	0.148800	1345.004517
3153.107041	0.097679	0.148800	1433.306763
3153.107929	0.097646	0.148800	1520.016846
3153.108859	0.097819	0.148800	1610.988159
3153.109767	0.097767	0.148800	1699.760864
3153.110658	0.097632	0.148800	1786.750854
3153.111574	0.097720	0.148800	1876.262085
3154.240715	0.954954	0.151375	419.224670
3154.241676	0.608335	0.151375	1003.834595
3154.242591	0.102565	0.151375	1097.681274
3154.243494	0.097603	0.151375	1185.816406
3154.244388	0.097687	0.151375	1273.148437
3154.245329	0.097804	0.151375	1365.182007
3154.246239	0.097789	0.151375	1454.170288
3154.247136	0.097749	0.151375	1541.851196
3154.248026	0.097797	0.151375	1628.890137
3154.248967	0.097723	0.151375	1720.847900
3154.249867	0.097723	0.151375	1808.798950
3154.250761	0.097720	0.151375	1896.160400
3155.170007	0.957129	0.143342	423.050964
3155.170899	0.663395	0.143342	1014.799072
3155.171856	0.103740	0.143342	1114.078491
3155.172761	0.097694	0.143342	1202.491699
3155.173658	0.097771	0.143342	1290.192261
3155.174542	0.097698	0.143342	1376.557129
3155.175478	0.097742	0.143342	1468.043335
3155.176389	0.097716	0.143342	1557.062622
3155.177288	0.097815	0.143342	1644.998291
3155.178218	0.097705	0.143342	1735.864014
3155.179121	0.097844	0.143342	1824.217407
3155.180027	0.097738	0.143342	1912.768066
3156.307402	0.950947	0.154718	417.465820
3156.308376	0.567180	0.154718	969.899353
3156.309284	0.102565	0.154718	1063.028076
3156.310190	0.097646	0.154718	1151.495850
3156.311076	0.097720	0.154718	1238.075562
3156.312013	0.097808	0.154718	1329.721313
3156.312920	0.097632	0.154718	1418.273437
3156.313810	0.097694	0.154718	1505.221191
3156.314733	0.097756	0.154718	1595.450317
3156.315642	0.097800	0.154718	1684.350830
3156.316536	0.097756	0.154718	1771.744995
3156.317424	0.097727	0.154718	1858.526611
3157.240013	0.950383	0.141972	416.267853
3157.240912	0.656814	0.141972	1006.743652
3157.241876	0.103191	0.141972	1106.219727
3157.242786	0.097577	0.141972	1195.014648
3157.243679	0.097683	0.141972	1282.245605
3157.244616	0.097716	0.141972	1373.805542
3157.245511	0.097712	0.141972	1461.258179
3157.246408	0.097661	0.141972	1548.860229
3157.247298	0.097621	0.141972	1635.742798
3157.248230	0.097742	0.141972	1726.838013
3157.249141	0.097775	0.141972	1815.910767
3157.250041	0.097628	0.141972	1903.776123
3158.372048	0.957656	0.159073	422.326385
3158.372978	0.628418	0.159073	1006.755127
3158.373877	0.104586	0.159073	1100.778076
3158.374828	0.097786	0.159073	1193.772217
3158.375732	0.097764	0.159073	1282.150635
3158.376632	0.097720	0.159073	1370.098389
3158.377519	0.097716	0.159073	1456.772583
3158.378456	0.097767	0.159073	1548.380615
3158.379367	0.097745	0.159073	1637.426636
3158.380269	0.097727	0.159073	1725.576416
3158.381207	0.097738	0.159073	1817.254639
3158.382118	0.097742	0.159073	1906.297363
3159.310545	0.957429	0.134427	424.141113
3159.311527	0.564902	0.134427	978.875183
3159.312434	0.102440	0.134427	1071.788452
3159.313328	0.097636	0.134427	1159.074585
3159.314231	0.097690	0.134427	1247.289062
3159.315163	0.097775	0.134427	1338.415039
3159.316079	0.097679	0.134427	1427.889404
3159.316978	0.097665	0.134427	1515.690063
3159.317904	0.097775	0.134427	1606.229370
3159.318811	0.097815	0.134427	1694.947510
3159.319711	0.097742	0.134427	1782.915039
3159.320600	0.097657	0.134427	1869.732544
3160.437750	0.984251	0.161788	476.377258
3160.438670	0.581627	0.161788	1011.474243
3160.439570	0.103184	0.161788	1104.339478
3160.440460	0.097628	0.161788	1191.228516
3160.441405	0.097742	0.161788	1283.594482
3160.442303	0.097756	0.161788	1371.379639
3160.443205	0.097731	0.161788	1459.532715
3160.444106	0.097767	0.161788	1547.621094
3160.445041	0.097826	0.161788	1639.088379
3160.445950	0.097723	0.161788	1727.918945
3160.446847	0.097731	0.161788	1815.583374
3160.447773	0.097808	0.161788	1906.153198
3161.380809	0.951339	0.132985	416.686523
3161.381805	0.537122	0.132985	951.659607
3161.382704	0.102103	0.132985	1043.450439
3161.383592	0.097643	0.132985	1130.157227
3161.384554	0.097775	0.132985	1224.216431
3161.385458	0.097786	0.132985	1312.614624
3161.386358	0.097705	0.132985	1400.549194
3161.387241	0.097775	0.132985	1486.884277
3161.388175	0.097782	0.132985	1578.212646
3161.389089	0.097756	0.132985	1667.562012
3161.389986	0.097694	0.132985	1755.193604
3161.390913	0.097760	0.132985	1845.817139
3162.503115	0.950698	0.162706	414.504425
3162.504010	0.666581	0.162706	1011.094238
3162.504962	0.103513	0.162706	1109.638794
3162.505877	0.097588	0.162706	1198.931763
3162.506772	0.097815	0.162706	1286.476074
3162.507660	0.097749	0.162706	1373.277222
3162.508604	0.097789	0.162706	1465.590332
3162.509506	0.097786	0.162706	1553.792969
3162.510400	0.097709	0.162706	1641.144531
3162.511329	0.097822	0.162706	1732.021362
3162.512239	0.097720	0.162706	1820.946289
3162.513136	0.097742	0.162706	1908.620605
3163.452139	0.981434	0.133988	456.366974
3163.453040	0.625250	0.133988	1019.717407
3163.453925	0.104861	0.133988	1112.519287
3163.454875	0.097701	0.133988	1205.335693
3163.455773	0.097650	0.133988	1293.025513
3163.456689	0.097742	0.133988	1382.556885
3163.457577	0.097679	0.133988	1469.296265
3163.458527	0.097793	0.133988	1562.199585
3163.459436	0.097643	0.133988	1650.956909
3163.460330	0.097690	0.133988	1738.292114
3163.461279	0.097720	0.133988	1831.028076
3163.462189	0.097749	0.133988	1919.979736
3164.569812	0.967994	0.166811	436.565460
3164.570714	0.643693	0.166811	1017.176147
3164.571664	0.103890	0.166811	1115.872070
3164.572584	0.097731	0.166811	1205.784302
3164.573505	0.097764	0.166811	1295.824707
3164.574391	0.097782	0.166811	1382.459595
3164.575347	0.097654	0.166811	1475.816650
3164.576248	0.097720	0.166811	1563.862183
3164.577138	0.097716	0.166811	1650.829468
3164.578075	0.097811	0.166811	1742.478638
3164.578985	0.097698	0.166811	1831.383545
3164.579897	0.097767	0.166811	1920.547363
3165.520842	0.952445	0.131241	415.266022
3165.521784	0.627360	0.131241	1006.238770
3165.522701	0.103063	0.131241	1100.747314
3165.523597	0.097595	0.131241	1188.192627
3165.524512	0.097661	0.131241	1277.552612
3165.525459	0.097782	0.131241	1370.152100
3165.526369	0.097764	0.131241	1459.117065
3165.527260	0.097687	0.131241	1546.156006
3165.528218	0.097709	0.131241	1639.760986
3165.529130	0.097643	0.131241	1728.811279
3165.530046	0.097731	0.131241	1818.332642
3165.530933	0.097731	0.131241	1905.019775
3166.637304	1.014009	0.167528	494.836273
3166.638232	0.561910	0.167528	1016.289062
3166.639138	0.102605	0.167528	1109.249146
3166.640027	0.097573	0.167528	1195.991699
3166.640965	0.097804	0.167528	1287.731812
3166.641869	0.097665	0.167528	1376.020752
3166.642758	0.097614	0.167528	1462.799194
3166.643688	0.097837	0.167528	1553.787476
3166.644598	0.097793	0.167528	1642.779053
3166.645495	0.097654	0.167528	1730.374512
3166.646385	0.097672	0.167528	1817.302734
3166.647353	0.097819	0.167528	1911.991089
3167.589315	0.945590	0.129199	409.440277
3167.590270	0.637635	0.129199	1018.382202
3167.591184	0.102931	0.129199	1112.461060
3167.592085	0.097562	0.129199	1200.364624
3167.592976	0.097672	0.129199	1287.390503
3167.593918	0.097712	0.129199	1379.435547
3167.594817	0.097712	0.129199	1467.279053
3167.595716	0.097687	0.129199	1555.099487
3167.596606	0.097687	0.129199	1642.040771
3167.597553	0.097668	0.129199	1734.532837
3167.598457	0.097734	0.129199	1822.884766
3167.599359	0.097712	0.129199	1911.021362
3168.705485	0.953203	0.165135	418.456177
3168.706382	0.657726	0.165135	1008.436218
3168.707332	0.103414	0.165135	1106.679810
3168.708247	0.097661	0.165135	1196.039795
3168.709146	0.097745	0.165135	1283.912842
3168.710068	0.097881	0.165135	1374.158936
3168.710978	0.097811	0.165135	1463.167236
3168.711890	0.097632	0.165135	1552.207520
3168.712783	0.097716	0.165135	1639.468018
3168.713723	0.097778	0.165135	1731.379639
3168.714621	0.097760	0.165135	1819.168091
3168.715521	0.097650	0.165135	1907.053223
3169.657072	0.992710	0.131869	461.610107
3169.657995	0.590167	0.131869	1006.334473
3169.658902	0.103202	0.131869	1099.938599
3169.659791	0.097573	0.131869	1186.681152
3169.660739	0.097793	0.131869	1279.388916
3169.661652	0.097822	0.131869	1368.700684
3169.662541	0.097654	0.131869	1455.514893
3169.663464	0.097643	0.131869	1545.639160
3169.664375	0.097690	0.131869	1634.635132
3169.665286	0.097646	0.131869	1723.591064
3169.666178	0.097749	0.131869	1810.783203
3169.667113	0.097749	0.131869	1902.178589
3170.774994	0.967749	0.163258	433.551575
3170.775897	0.641825	0.163258	1013.119446
3170.776840	0.103876	0.163258	1111.074219
3170.777746	0.097687	0.163258	1199.578369
3170.778651	0.097625	0.163258	1287.928589
3170.779542	0.097753	0.163258	1375.026245
3170.780488	0.097789	0.163258	1467.534912
3170.781398	0.097782	0.163258	1556.516479
3170.782292	0.097742	0.163258	1643.897583
3170.783225	0.097705	0.163258	1735.056396
3170.784130	0.097833	0.163258	1823.595459
3170.785039	0.097716	0.163258	1912.419312
3171.722187	0.954056	0.132139	420.738892
3171.723138	0.632399	0.132139	1022.150024
3171.724056	0.102719	0.132139	1116.445557
3171.724959	0.097548	0.132139	1204.531006
3171.725846	0.097643	0.132139	1291.140137
3171.726778	0.097764	0.132139	1382.255859
3171.727690	0.097767	0.132139	1471.419678
3171.728592	0.097672	0.132139	1559.519897
3171.729482	0.097738	0.132139	1646.506714
3171.730421	0.097767	0.132139	1738.310181
3171.731327	0.097705	0.132139	1826.830933
3171.732215	0.097705	0.132139	1913.593018
3172.845009	0.960707	0.162146	426.553802
3172.845904	0.654521	0.162146	1012.350464
3172.846860	0.103110	0.162146	1110.923950
3172.847775	0.097599	0.162146	1200.226929
3172.848672	0.097756	0.162146	1287.914429
3172.849584	0.097665	0.162146	1376.984741
3172.850511	0.097782	0.162146	1467.628662
3172.851423	0.097712	0.162146	1556.742432
3172.852314	0.097712	0.162146	1643.804199
3172.853257	0.097709	0.162146	1735.943604
3172.854157	0.097745	0.162146	1823.914429
3172.855061	0.097716	0.162146	1912.249756
3173.788872	0.948303	0.134161	411.563568
3173.789819	0.607592	0.134161	986.952759
3173.790723	0.103513	0.134161	1080.528687
3173.791627	0.097646	0.134161	1168.801147
3173.792517	0.097668	0.134161	1255.726074
3173.793465	0.097701	0.134161	1348.347046
3173.794373	0.097661	0.134161	1437.023315
3173.795268	0.097698	0.134161	1524.462769
3173.796183	0.097668	0.134161	1613.829346
3173.797091	0.097826	0.134161	1702.655273
3173.797993	0.097720	0.134161	1790.798462
3173.798894	0.097668	0.134161	1878.797729
3174.915034	0.962344	0.157880	433.054687
3174.915927	0.654756	0.157880	1017.751648
3174.916864	0.104418	0.157880	1115.591064
3174.917781	0.097526	0.157880	1205.022095
3174.918674	0.097636	0.157880	1292.210571
3174.919562	0.097712	0.157880	1378.979126
3174.920520	0.097716	0.157880	1472.591064
3174.921428	0.097665	0.157880	1561.270752
3174.922321	0.097639	0.157880	1648.462524
3174.923255	0.097701	0.157880	1739.715698
3174.924156	0.097636	0.157880	1827.685303
3174.925060	0.097712	0.157880	1916.017334
3175.853555	0.998419	0.139765	472.252289
3175.854485	0.573318	0.139765	1005.437866
3175.855384	0.102788	0.139765	1097.844360
3175.856270	0.097606	0.139765	1184.323486
3175.857221	0.097698	0.139765	1277.234009
3175.858132	0.097679	0.139765	1366.219971
3175.859022	0.097643	0.139765	1453.122070
3175.859970	0.097676	0.139765	1545.718750
3175.860883	0.097683	0.139765	1634.903442
3175.861776	0.097639	0.139765	1722.095215
3175.862667	0.097617	0.139765	1809.072144
3175.863605	0.097756	0.139765	1900.767578
3176.985815	0.955067	0.156378	421.184601
3176.986738	0.646721	0.156378	1018.108276
3176.987663	0.103378	0.156378	1113.732666
3176.988574	0.097595	0.156378	1202.641846
3176.989461	0.097701	0.156378	1289.302979
3176.990391	0.097738	0.156378	1380.199341
3176.991309	0.097694	0.156378	1469.882568
3176.992204	0.097705	0.156378	1557.328613
3176.993138	0.097716	0.156378	1648.595459
3176.994049	0.097709	0.156378	1737.608154
3176.994948	0.097701	0.156378	1825.441772
3176.995839	0.097676	0.156378	1912.470947
3177.920209	0.963168	0.143769	426.683289
3177.921114	0.655093	0.143769	1019.542236
3177.922004	0.105912	0.143769	1113.803833
3177.922959	0.097734	0.143769	1207.140137
3177.923855	0.097606	0.143769	1294.595337
3177.924752	0.097698	0.143769	1382.230225
3177.925676	0.097723	0.143769	1472.526611
3177.926568	0.097786	0.143769	1559.751465
3177.927507	0.097665	0.143769	1651.458740
3177.928410	0.097727	0.143769	1739.706299
3177.929301	0.097690	0.143769	1826.748413
3177.930227	0.097808	0.143769	1917.318237
3179.056344	0.964841	0.152929	427.424713
3179.057269	0.628301	0.152929	1008.602905
3179.058167	0.104366	0.152929	1102.323975
3179.059104	0.097562	0.152929	1193.739868
3179.060018	0.097789	0.152929	1283.119263
3179.060929	0.097617	0.152929	1372.048584
3179.061816	0.097738	0.152929	1458.742187
3179.062759	0.097830	0.152929	1550.995483
3179.063659	0.097745	0.152929	1638.966309
3179.064553	0.097734	0.152929	1726.340820
3179.065445	0.097734	0.152929	1813.519897
3179.066390	0.097793	0.152929	1905.934204
3179.987162	0.964142	0.146130	430.971405
3179.988062	0.651753	0.146130	1017.549072
3179.989009	0.105417	0.146130	1117.379395
3179.989918	0.097661	0.146130	1206.153320
3179.990815	0.097720	0.146130	1293.807861
3179.991706	0.097694	0.146130	1380.853271
3179.992659	0.097705	0.146130	1473.966187
3179.993566	0.097749	0.146130	1562.624512
3179.994465	0.097712	0.146130	1650.468018
3179.995352	0.097676	0.146130	1737.106445
3179.996284	0.097731	0.146130	1828.191528
3179.997194	0.097639	0.146130	1917.043213
3181.125878	1.003283	0.149187	482.578918
3181.126798	0.576650	0.149187	1013.097290
3181.127707	0.102902	0.149187	1106.634888
3181.128598	0.097562	0.149187	1193.562866
3181.129537	0.097789	0.149187	1285.386963
3181.130445	0.097712	0.149187	1374.109863
3181.131337	0.097760	0.149187	1461.311768
3181.132276	0.097771	0.149187	1553.118774
3181.133184	0.097731	0.149187	1641.858276
3181.134085	0.097709	0.149187	1729.893799
3181.134975	0.097650	0.149187	1816.802490
3181.135922	0.097720	0.149187	1909.343018
3182.054856	0.950306	0.148055	415.283905
3182.055834	0.560837	0.148055	963.782837
3182.056749	0.102070	0.148055	1057.177124
3182.057660	0.097687	0.148055	1146.169800
3182.058547	0.097753	0.148055	1232.876465
3182.059503	0.097756	0.148055	1326.331543
3182.060418	0.097756	0.148055	1415.778564
3182.061310	0.097749	0.148055	1502.970703
3182.062248	0.097859	0.148055	1594.762329
3182.063146	0.097822	0.148055	1682.606689
3182.064045	0.097690	0.148055	1770.430420
3182.064936	0.097764	0.148055	1857.537842
3183.194321	0.953719	0.144563	421.544006
3183.195253	0.638214	0.144563	1016.359558
3183.196175	0.103103	0.144563	1111.420532
3183.197101	0.097632	0.144563	1201.827637
3183.197999	0.097734	0.144563	1289.593140
3183.198931	0.097760	0.144563	1380.705444
3183.199836	0.097771	0.144563	1469.188232
3183.200739	0.097764	0.144563	1557.468872
3183.201629	0.097782	0.144563	1644.494873
3183.202567	0.097859	0.144563	1736.286499
3183.203474	0.097756	0.144563	1824.951538
3183.204364	0.097731	0.144563	1911.931885
3184.124371	0.959766	0.152780	422.296875
3184.125321	0.622375	0.152780	1013.553589
3184.126238	0.103191	0.152780	1108.179687
3184.127136	0.097617	0.152780	1195.839966
3184.128026	0.097716	0.152780	1282.807251
3184.128968	0.097833	0.152780	1374.966187
3184.129872	0.097742	0.152780	1463.324707
3184.130778	0.097742	0.152780	1551.878662
3184.131667	0.097709	0.152780	1638.741699
3184.132609	0.097852	0.152780	1730.917847
3184.133520	0.097632	0.152780	1819.860474
3184.134419	0.097749	0.152780	1907.736816
3185.261811	0.969408	0.144224	462.407593
3185.262738	0.574178	0.144224	994.671021
3185.263640	0.103044	0.144224	1087.617065
3185.264536	0.097657	0.144224	1175.118164
3185.265495	0.097738	0.144224	1268.848877
3185.266393	0.097745	0.144224	1356.624268
3185.267292	0.097646	0.144224	1444.408447
3185.268176	0.097811	0.144224	1530.873657
3185.269112	0.097830	0.144224	1622.442139
3185.270015	0.097782	0.144224	1710.739258
3185.270912	0.097668	0.144224	1798.347900
3185.271837	0.097789	0.144224	1888.802979
3186.193872	0.955887	0.153634	424.414062
3186.194770	0.644019	0.153634	1002.742676
3186.195728	0.103066	0.153634	1101.480347
3186.196640	0.097540	0.153634	1190.437134
3186.197541	0.097657	0.153634	1278.426514
3186.198469	0.097753	0.153634	1369.140991
3186.199376	0.097760	0.153634	1457.809326
3186.200277	0.097701	0.153634	1545.838257
3186.201168	0.097632	0.153634	1632.828247
3186.202113	0.097793	0.153634	1725.242554
3186.203020	0.097694	0.153634	1813.851074
3186.203920	0.097676	0.153634	1901.759277
3187.328509	1.013397	0.142589	497.578033
3187.329429	0.565093	0.142589	1017.463379
3187.330332	0.102612	0.142589	1110.122314
3187.331219	0.097701	0.142589	1196.783447
3187.332168	0.097760	0.142589	1289.557739
3187.333076	0.097738	0.142589	1378.303833
3187.333966	0.097701	0.142589	1465.258057
3187.334893	0.097775	0.142589	1555.895142
3187.335792	0.097716	0.142589	1643.741943
3187.336705	0.097687	0.142589	1732.929932
3187.337604	0.097701	0.142589	1820.763550
3187.338529	0.097679	0.142589	1911.117065
3188.263881	0.952273	0.156627	417.095551
3188.264824	0.640979	0.156627	1021.538696
3188.265732	0.103916	0.156627	1115.894409
3188.266644	0.097712	0.156627	1205.008057
3188.267531	0.097716	0.156627	1291.682251
3188.268461	0.097800	0.156627	1382.636475
3188.269371	0.097636	0.156627	1471.484741
3188.270275	0.097720	0.156627	1559.823364
3188.271165	0.097749	0.156627	1646.819946
3188.272116	0.097863	0.156627	1739.887207
3188.273023	0.097709	0.156627	1828.509033
3188.273921	0.097672	0.156627	1916.218628
3189.395189	1.000778	0.140712	473.367798
3189.396128	0.567041	0.140712	1005.819336
3189.397026	0.102682	0.140712	1098.027710
3189.397938	0.097650	0.140712	1187.084595
3189.398858	0.097797	0.140712	1277.057495
3189.399768	0.097698	0.140712	1365.962402
3189.400658	0.097789	0.140712	1452.994873
3189.401585	0.097786	0.140712	1543.642212
3189.402491	0.097731	0.140712	1632.186279
3189.403395	0.097745	0.140712	1720.548096
3189.404289	0.097775	0.140712	1807.958618
3189.405254	0.097808	0.140712	1902.343018
3190.334148	0.943429	0.159012	406.617859
3190.335101	0.638903	0.159012	1015.492004
3190.336022	0.102894	0.159012	1110.257690
3190.336928	0.097705	0.159012	1198.778442
3190.337816	0.097778	0.159012	1285.605591
3190.338776	0.097819	0.159012	1379.511475
3190.339682	0.097712	0.159012	1468.038940
3190.340587	0.097786	0.159012	1556.534912
3190.341471	0.097804	0.159012	1642.993652
3190.342401	0.097793	0.159012	1733.941162
3190.343310	0.097701	0.159012	1822.751709
3190.344204	0.097804	0.159012	1910.188477
3191.460556	0.950651	0.141803	419.236938
3191.461449	0.669924	0.141803	1017.479370
3191.462401	0.103704	0.141803	1116.205200
3191.463311	0.097562	0.141803	1204.986816
3191.464232	0.097646	0.141803	1294.919189
3191.465130	0.097614	0.141803	1382.576172
3191.466092	0.097672	0.141803	1476.536743
3191.466996	0.097654	0.141803	1564.815796
3191.467891	0.097676	0.141803	1652.235596
3191.468820	0.097690	0.141803	1742.989990
3191.469736	0.097632	0.141803	1832.420776
3191.470636	0.097632	0.141803	1920.289429
3192.404695	0.963190	0.157494	425.729858
3192.405611	0.644377	0.157494	1015.979553
3192.406538	0.103843	0.157494	1112.241821
3192.407472	0.097701	0.157494	1203.494995
3192.408361	0.097709	0.157494	1290.358032
3192.409305	0.097705	0.157494	1382.591675
3192.410204	0.097672	0.157494	1470.398926
3192.411093	0.097683	0.157494	1557.239258
3192.412030	0.097822	0.157494	1648.898682
3192.412937	0.097720	0.157494	1737.530518
3192.413856	0.097712	0.157494	1827.328247
3192.414750	0.097716	0.157494	1914.686401
3193.527818	1.004323	0.141320	502.161255
3193.528751	0.536147	0.141320	1002.386841
3193.529652	0.101975	0.141320	1094.266357
3193.530542	0.097628	0.141320	1181.155396
3193.531496	0.097698	0.141320	1274.359009
3193.532399	0.097621	0.141320	1362.510620
3193.533290	0.097764	0.141320	1449.618042
3193.534210	0.097701	0.141320	1539.503296
3193.535131	0.097756	0.141320	1629.536865
3193.536047	0.097709	0.141320	1719.038086
3193.536941	0.097709	0.141320	1806.389648
3193.537864	0.097800	0.141320	1896.659302
3194.474254	0.983672	0.157135	495.770599
3194.475172	0.558973	0.157135	1008.908203
3194.476068	0.102642	0.157135	1100.875122
3194.476959	0.097628	0.157135	1187.861816
3194.477893	0.097859	0.157135	1279.261963
3194.478804	0.097822	0.157135	1368.378052
3194.479706	0.097705	0.157135	1456.508057
3194.480594	0.097698	0.157135	1543.263672
3194.481538	0.097782	0.157135	1635.569824
3194.482444	0.097698	0.157135	1724.083984
3194.483338	0.097786	0.157135	1811.504395
3194.484276	0.097833	0.157135	1903.271973
3195.594964	0.959648	0.142005	423.204956
3195.595890	0.623159	0.142005	1000.250366
3195.596788	0.104326	0.142005	1093.935303
3195.597727	0.097657	0.142005	1185.635620
3195.598638	0.097683	0.142005	1274.624878
3195.599546	0.097701	0.142005	1363.337769
3195.600435	0.097720	0.142005	1450.210571
3195.601386	0.097665	0.142005	1543.089844
3195.602293	0.097723	0.142005	1631.724976
3195.603192	0.097599	0.142005	1719.466309
3195.604125	0.097760	0.142005	1810.676392
3195.605022	0.097797	0.142005	1898.400024
3196.542168	0.964226	0.158742	433.901733
3196.543064	0.652723	0.158742	1018.741882
3196.544019	0.105582	0.158742	1119.572998
3196.544926	0.097683	0.158742	1208.171631
3196.545817	0.097701	0.158742	1295.223633
3196.546710	0.097712	0.158742	1382.480835
3196.547651	0.097753	0.158742	1474.466064
3196.548559	0.097650	0.158742	1563.132446
3196.549463	0.097606	0.158742	1651.368408
3196.550351	0.097723	0.158742	1738.146729
3196.551304	0.097742	0.158742	1831.294556
3196.552215	0.097650	0.158742	1920.253784
3197.663181	0.960886	0.141332	426.633484
3197.664154	0.574479	0.141332	985.601379
3197.665058	0.102667	0.141332	1078.412598
3197.665957	0.097570	0.141332	1166.127686
3197.666842	0.097639	0.141332	1252.538330
3197.667795	0.097720	0.141332	1345.665283
3197.668699	0.097745	0.141332	1434.027100
3197.669597	0.097646	0.141332	1521.713623
3197.670527	0.097760	0.141332	1612.630371
3197.671432	0.097771	0.141332	1701.113159
3197.672337	0.097727	0.141332	1789.556152
3197.673235	0.097694	0.141332	1877.285400
3198.609611	0.955437	0.159548	420.392273
3198.610581	0.598986	0.159548	1001.408325
3198.611498	0.102140	0.159548	1095.070557
3198.612402	0.097646	0.159548	1183.343018
3198.613294	0.097749	0.159548	1270.535156
3198.614246	0.097855	0.159548	1363.693359
3198.615157	0.097701	0.159548	1452.699341
3198.616071	0.097712	0.159548	1542.008423
3198.616982	0.097668	0.159548	1630.984375
3198.617903	0.097771	0.159548	1721.031494
3198.618807	0.097676	0.159548	1809.330444
3198.619693	0.097654	0.159548	1895.851685
3199.732180	0.960487	0.140639	428.377197
3199.733081	0.655104	0.140639	1018.625671
3199.734038	0.103374	0.140639	1117.554565
3199.734939	0.097657	0.140639	1205.543945
3199.735837	0.097742	0.140639	1293.316040
3199.736723	0.097683	0.140639	1379.863281
3199.737672	0.097815	0.140639	1472.689697
3199.738570	0.097672	0.140639	1560.399292
3199.739467	0.097731	0.140639	1648.063721
3199.740404	0.097712	0.140639	1739.620239
3199.741314	0.097837	0.140639	1828.651855
3199.742218	0.097679	0.140639	1916.954102
3200.676553	0.951797	0.159762	415.935242
3200.677526	0.597861	0.159762	997.654297
3200.678435	0.102440	0.159762	1090.772461
3200.679334	0.097625	0.159762	1178.536865
3200.680222	0.097672	0.159762	1265.269653
3200.681167	0.097800	0.159762	1357.690918
3200.682067	0.097665	0.159762	1445.589233
3200.682990	0.097701	0.159762	1535.767578
3200.683879	0.097727	0.159762	1622.646973
3200.684828	0.097661	0.159762	1715.327393
3200.685725	0.097668	0.159762	1802.936035
3200.686612	0.097694	0.159762	1889.590698
3201.802446	0.949607	0.141513	419.726257
3201.803342	0.665270	0.141513	1015.807983
3201.804268	0.106161	0.141513	1114.112915
3201.805205	0.097632	0.141513	1205.593994
3201.806107	0.097661	0.141513	1293.684326
3201.806998	0.097731	0.141513	1380.762451
3201.807927	0.097767	0.141513	1471.588257
3201.808838	0.097756	0.141513	1560.644287
3201.809750	0.097775	0.141513	1649.814819
3201.810637	0.097654	0.141513	1736.433716
3201.811582	0.097727	0.141513	1828.785767
3201.812472	0.097727	0.141513	1915.762817
3202.742245	0.989498	0.159447	455.169220
3202.743181	0.578928	0.159447	997.046021
3202.744079	0.103158	0.159447	1089.681885
3202.745046	0.097694	0.159447	1184.152100
3202.745952	0.097701	0.159447	1272.669556
3202.746845	0.097694	0.159447	1359.910400
3202.747780	0.097742	0.159447	1451.298828
3202.748697	0.097581	0.159447	1540.780151
3202.749617	0.097731	0.159447	1630.692383
3202.750505	0.097712	0.159447	1717.460937
3202.751445	0.097764	0.159447	1809.358765
3202.752343	0.097734	0.159447	1897.124268
3203.872468	0.955503	0.141360	426.154266
3203.873365	0.661644	0.141360	1019.649170
3203.874306	0.105304	0.141360	1118.740234
3203.875212	0.097606	0.141360	1207.171509
3203.876128	0.097661	0.141360	1296.629150
3203.877019	0.097687	0.141360	1383.668091
3203.877973	0.097745	0.141360	1476.917114
3203.878888	0.097705	0.141360	1566.317261
3203.879783	0.097657	0.141360	1653.720703
3203.880705	0.097830	0.141360	1743.919556
3203.881623	0.097694	0.141360	1833.602783
3203.882517	0.097727	0.141360	1920.970825
3204.807693	1.023992	0.157663	509.947876
3204.808614	0.544834	0.157663	1011.739990
3204.809539	0.101580	0.157663	1105.701172
3204.810427	0.097665	0.157663	1192.427490
3204.811376	0.097793	0.157663	1285.233032
3204.812273	0.097712	0.157663	1372.881104
3204.813167	0.097694	0.157663	1460.219604
3204.814093	0.097738	0.157663	1550.724976
3204.815007	0.097727	0.157663	1640.047485
3204.815925	0.097716	0.157663	1729.750854
3204.816822	0.097694	0.157663	1817.382446
3204.817759	0.097793	0.157663	1909.014404
3205.941970	0.977190	0.142516	435.826721
3205.942917	0.586227	0.142516	990.983521
3205.943813	0.103455	0.142516	1083.678833
3205.944775	0.097636	0.142516	1177.604248
3205.945678	0.097621	0.142516	1265.755859
3205.946568	0.097698	0.142516	1352.706909
3205.947510	0.097694	0.142516	1444.734741
3205.948414	0.097720	0.142516	1533.073364
3205.949330	0.097753	0.142516	1622.614868
3205.950219	0.097767	0.142516	1709.530029
3205.951181	0.097749	0.142516	1803.564575
3205.952076	0.097712	0.142516	1891.017212
3206.874380	0.993988	0.155508	500.970001
3206.875309	0.544600	0.155508	1006.903015
3206.876234	0.101591	0.155508	1100.874268
3206.877126	0.097617	0.155508	1187.948853
3206.878081	0.097665	0.155508	1281.218750
3206.878980	0.097690	0.155508	1369.042480
3206.879868	0.097646	0.155508	1455.752563
3206.880800	0.097742	0.155508	1546.847778
3206.881708	0.097690	0.155508	1635.550659
3206.882633	0.097709	0.155508	1725.931274
3206.883523	0.097753	0.155508	1812.931152
3206.884483	0.097632	0.155508	1906.657715
3208.011745	0.981870	0.145912	454.605865
3208.012663	0.606387	0.145912	1011.268921
3208.013555	0.104158	0.145912	1104.177612
3208.014502	0.097577	0.145912	1196.582886
3208.015414	0.097687	0.145912	1285.673218
3208.016303	0.097720	0.145912	1372.546021
3208.017255	0.097749	0.145912	1465.603027
3208.018174	0.097687	0.145912	1555.377197
3208.019097	0.097797	0.145912	1645.643555
3208.019987	0.097742	0.145912	1732.633667
3208.020925	0.097760	0.145912	1824.332520
3208.021836	0.097764	0.145912	1913.395264
3208.940496	0.960557	0.153808	422.644897
3208.941399	0.659403	0.153808	1018.085876
3208.942287	0.106146	0.153808	1112.343750
3208.943253	0.097705	0.153808	1206.726807
3208.944170	0.097665	0.153808	1296.285400
3208.945065	0.097650	0.153808	1383.682251
3208.945977	0.097723	0.153808	1472.806030
3208.946893	0.097848	0.153808	1562.434692
3208.947799	0.097668	0.153808	1650.922363
3208.948688	0.097734	0.153808	1737.808228
3208.949622	0.097786	0.153808	1829.140015
3208.950530	0.097679	0.153808	1917.833008
3210.080199	0.954214	0.148394	416.991486
3210.081180	0.561592	0.148394	967.913086
3210.082106	0.101792	0.148394	1062.172485
3210.082994	0.097628	0.148394	1148.866333
3210.083940	0.097731	0.148394	1241.319580
3210.084837	0.097756	0.148394	1329.007080
3210.085760	0.097793	0.148394	1419.270020
3210.086649	0.097617	0.148394	1506.051758
3210.087590	0.097705	0.148394	1597.992187
3210.088490	0.097760	0.148394	1685.976196
3210.089383	0.097690	0.148394	1773.213745
3210.090319	0.097701	0.148394	1864.662231
3211.008725	0.960055	0.149546	424.344269
3211.009705	0.559709	0.149546	972.859497
3211.010613	0.102572	0.149546	1065.994873
3211.011507	0.097643	0.149546	1153.287598
3211.012414	0.097650	0.149546	1241.856323
3211.013340	0.097760	0.149546	1332.382080
3211.014250	0.097701	0.149546	1421.290405
3211.015143	0.097643	0.149546	1508.485474
3211.016061	0.097800	0.149546	1598.266113
3211.016971	0.097778	0.149546	1687.244385
3211.017871	0.097709	0.149546	1775.182251
3211.018758	0.097727	0.149546	1861.866211
3212.146377	0.950079	0.150661	413.284485
3212.147352	0.575885	0.150661	974.772339
3212.148256	0.102642	0.150661	1067.560303
3212.149144	0.097665	0.150661	1154.286621
3212.150083	0.097789	0.150661	1246.110840
3212.150994	0.097628	0.150661	1335.050049
3212.151913	0.097698	0.150661	1424.834229
3212.152801	0.097676	0.150661	1511.570312
3212.153741	0.097727	0.150661	1603.433716
3212.154644	0.097639	0.150661	1691.601929
3212.155562	0.097775	0.150661	1781.359131
3212.156449	0.097709	0.150661	1868.026733
3213.076946	0.965182	0.147129	427.575562
3213.077862	0.634882	0.147129	1009.127075
3213.078750	0.105135	0.147129	1102.487427
3213.079713	0.097676	0.147129	1196.549194
3213.080622	0.097603	0.147129	1285.269897
3213.081512	0.097712	0.147129	1372.233887
3213.082464	0.097709	0.147129	1465.252563
3213.083361	0.097738	0.147129	1552.923584
3213.084256	0.097592	0.147129	1640.268066
3213.085148	0.097676	0.147129	1727.394897
3213.086081	0.097738	0.147129	1818.584473
3213.086984	0.097716	0.147129	1906.822021
3214.213856	0.974571	0.153804	442.455444
3214.214765	0.628828	0.153804	1014.060181
3214.215712	0.104385	0.153804	1112.912598
3214.216615	0.097643	0.153804	1201.084106
3214.217510	0.097690	0.153804	1288.517090
3214.218397	0.097687	0.153804	1375.165283
3214.219323	0.097760	0.153804	1465.691040
3214.220232	0.097668	0.153804	1554.471680
3214.221132	0.097720	0.153804	1642.419434
3214.222023	0.097727	0.153804	1729.494263
3214.222966	0.097742	0.153804	1821.664673
3214.223879	0.097650	0.153804	1910.819214
3215.145161	0.956814	0.144430	418.127716
3215.146138	0.580492	0.144430	985.268311
3215.147040	0.102946	0.144430	1078.125244
3215.147940	0.097679	0.144430	1166.036743
3215.148870	0.097723	0.144430	1256.919434
3215.149776	0.097756	0.144430	1345.486694
3215.150679	0.097694	0.144430	1433.704468
3215.151572	0.097694	0.144430	1520.945312
3215.152517	0.097749	0.144430	1613.318115
3215.153411	0.097767	0.144430	1700.722168
3215.154307	0.097738	0.144430	1788.295410
3215.155194	0.097753	0.144430	1875.002075
3216.280283	0.967218	0.157203	440.084167
3216.281183	0.646230	0.157203	1021.691589
3216.282128	0.104982	0.157203	1120.899292
3216.283029	0.097742	0.157203	1208.964600
3216.283933	0.097690	0.157203	1297.276733
3216.284825	0.097712	0.157203	1384.436157
3216.285768	0.097753	0.157203	1476.616943
3216.286673	0.097716	0.157203	1565.049927
3216.287577	0.097672	0.157203	1653.345459
3216.288466	0.097698	0.157203	1740.198730
3216.289419	0.097731	0.157203	1833.336060
3216.290326	0.097650	0.157203	1921.904785
3217.215489	1.002535	0.140039	494.249939
3217.216422	0.545109	0.140039	1002.836304
3217.217327	0.102173	0.140039	1095.302734
3217.218214	0.097584	0.140039	1181.859985
3217.219165	0.097764	0.140039	1274.833252
3217.220076	0.097628	0.140039	1363.772461
3217.220969	0.097676	0.140039	1450.996948
3217.221898	0.097800	0.140039	1541.853394
3217.222812	0.097679	0.140039	1631.132446
3217.223723	0.097632	0.140039	1720.075073
3217.224626	0.097731	0.140039	1808.325928
3217.225559	0.097786	0.140039	1899.559937
3218.345466	1.007395	0.160100	488.586578
3218.346398	0.557073	0.160100	1007.778442
3218.347308	0.102393	0.160100	1100.955688
3218.348200	0.097573	0.160100	1187.990967
3218.349148	0.097826	0.160100	1280.729980
3218.350054	0.097661	0.160100	1369.210937
3218.350949	0.097731	0.160100	1456.679932
3218.351883	0.097760	0.160100	1547.987793
3218.352790	0.097826	0.160100	1636.715942
3218.353691	0.097701	0.160100	1724.744873
3218.354579	0.097621	0.160100	1811.432129
3218.355524	0.097852	0.160100	1903.901855
3219.285981	0.965749	0.135596	430.724243
3219.286887	0.648735	0.135596	1018.478455
3219.287770	0.105630	0.135596	1111.749634
3219.288712	0.097676	0.135596	1203.760254
3219.289615	0.097694	0.135596	1291.978027
3219.290520	0.097753	0.135596	1380.444214
3219.291411	0.097819	0.135596	1467.600586
3219.292362	0.097782	0.135596	1560.591309
3219.293270	0.097683	0.135596	1649.287598
3219.294167	0.097786	0.135596	1737.001343
3219.295093	0.097742	0.135596	1827.510132
3219.295994	0.097749	0.135596	1915.582031
3220.410821	0.945114	0.162589	409.234192
3220.411792	0.599890	0.162589	991.727478
3220.412699	0.102638	0.162589	1084.820068
3220.413602	0.097625	0.162589	1172.974976
3220.414492	0.097804	0.162589	1260.020508
3220.415420	0.097844	0.162589	1350.819946
3220.416329	0.097705	0.162589	1439.633911
3220.417226	0.097738	0.162589	1527.304932
3220.418116	0.097701	0.162589	1614.259155
3220.419053	0.097808	0.162589	1705.904907
3220.419958	0.097756	0.162589	1794.374390
3220.420846	0.097617	0.162589	1881.058472
3221.356245	0.963168	0.135608	431.499146
3221.357151	0.641093	0.135608	1012.328979
3221.358080	0.105187	0.135608	1110.047485
3221.359001	0.097760	0.135608	1200.084473
3221.359904	0.097786	0.135608	1288.384888
3221.360798	0.097720	0.135608	1375.746338
3221.361734	0.097753	0.135608	1467.242920
3221.362635	0.097745	0.135608	1555.311523
3221.363526	0.097782	0.135608	1642.435303
3221.364419	0.097775	0.135608	1729.748047
3221.365359	0.097892	0.135608	1821.766357
3221.366262	0.097731	0.135608	1910.017212
3222.477776	0.957623	0.163415	421.354248
3222.478741	0.585150	0.163415	986.024109
3222.479653	0.103154	0.163415	1080.100830
3222.480543	0.097625	0.163415	1166.986694
3222.481479	0.097753	0.163415	1258.483154
3222.482379	0.097826	0.163415	1346.526489
3222.483282	0.097701	0.163415	1434.750854
3222.484189	0.097742	0.163415	1523.402588
3222.485084	0.097764	0.163415	1610.901123
3222.486016	0.097705	0.163415	1701.962280
3222.486950	0.097683	0.163415	1793.198242
3222.487869	0.097734	0.163415	1883.016113
3223.425739	0.966456	0.134508	424.274292
3223.426713	0.563591	0.134508	973.212219
3223.427640	0.102056	0.134508	1067.817871
3223.428530	0.097610	0.134508	1154.690674
3223.429479	0.097665	0.134508	1247.374512
3223.430378	0.097701	0.134508	1335.208130
3223.431266	0.097621	0.134508	1421.895386
3223.432190	0.097804	0.134508	1512.266235
3223.433112	0.097782	0.134508	1602.421265
3223.434014	0.097683	0.134508	1690.531372
3223.434909	0.097727	0.134508	1777.997070
3223.435839	0.097756	0.134508	1868.910522
3224.544991	0.974799	0.166126	440.608917
3224.545916	0.612107	0.166126	1006.807861
3224.546817	0.103667	0.166126	1100.211792
3224.547730	0.097555	0.166126	1189.279419
3224.548651	0.097819	0.166126	1279.370361
3224.549570	0.097705	0.166126	1369.161377
3224.550465	0.097698	0.166126	1456.600830
3224.551408	0.097808	0.166126	1548.833374
3224.552306	0.097778	0.166126	1636.638306
3224.553206	0.097709	0.166126	1724.576172
3224.554095	0.097745	0.166126	1811.471802
3224.555031	0.097749	0.166126	1902.964844
3225.494221	0.955455	0.132639	424.222168
3225.495111	0.662886	0.132639	1014.190491
3225.496076	0.103326	0.132639	1113.900513
3225.496994	0.097665	0.132639	1203.556763
3225.497893	0.097676	0.132639	1291.367310
3225.498819	0.097778	0.132639	1381.910034
3225.499730	0.097705	0.132639	1470.919312
3225.500654	0.097731	0.132639	1561.222534
3225.501540	0.097786	0.132639	1647.860596
3225.502484	0.097808	0.132639	1740.191040
3225.503383	0.097687	0.132639	1828.011475
3225.504270	0.097701	0.132639	1914.672607
3226.612690	0.962618	0.164293	431.253021
3226.613595	0.641305	0.164293	1011.633911
3226.614548	0.104092	0.164293	1110.833374
3226.615455	0.097676	0.164293	1199.425293
3226.616356	0.097764	0.164293	1287.510376
3226.617245	0.097745	0.164293	1374.406006
3226.618195	0.097727	0.164293	1467.246704
3226.619097	0.097815	0.164293	1555.475830
3226.619991	0.097716	0.164293	1642.833984
3226.620908	0.097731	0.164293	1732.453003
3226.621830	0.097786	0.164293	1822.611328
3226.622737	0.097712	0.164293	1911.236450
3227.562196	0.963453	0.135430	428.736755
3227.563105	0.648757	0.135430	1018.457153
3227.563991	0.105630	0.135430	1112.045166
3227.564943	0.097654	0.135430	1205.011597
3227.565861	0.097808	0.135430	1294.798950
3227.566753	0.097775	0.135430	1382.013916
3227.567686	0.097767	0.135430	1473.230835
3227.568599	0.097753	0.135430	1562.479004
3227.569503	0.097672	0.135430	1650.774658
3227.570393	0.097668	0.135430	1737.699585
3227.571348	0.097778	0.135430	1831.077881
3227.572253	0.097712	0.135430	1919.507568
3228.681688	0.964482	0.161369	430.159149
3228.682611	0.630033	0.161369	1011.679565
3228.683509	0.104469	0.161369	1105.492676
3228.684435	0.097694	0.161369	1195.957397
3228.685341	0.097566	0.161369	1284.352051
3228.686245	0.097581	0.161369	1372.564941
3228.687135	0.097657	0.161369	1459.480103
3228.688090	0.097767	0.161369	1552.847900
3228.688998	0.097701	0.161369	1641.560791
3228.689892	0.097617	0.161369	1728.830566
3228.690831	0.097760	0.161369	1820.627197
3228.691744	0.097727	0.161369	1909.852051
3229.628891	0.964710	0.135579	435.083984
3229.629791	0.647377	0.135579	1017.723022
3229.630730	0.105216	0.135579	1116.520874
3229.631645	0.097679	0.135579	1205.897583
3229.632550	0.097636	0.135579	1294.257690
3229.633439	0.097610	0.135579	1381.032837
3229.634371	0.097727	0.135579	1472.114502
3229.635274	0.097742	0.135579	1560.375244
3229.636181	0.097668	0.135579	1648.960571
3229.637067	0.097709	0.135579	1735.530518
3229.638009	0.097723	0.135579	1827.585937
3229.638919	0.097628	0.135579	1916.427612
3230.751703	0.963556	0.163919	431.673035
3230.752600	0.654071	0.163919	1018.374756
3230.753491	0.105813	0.163919	1112.654175
3230.754431	0.097636	0.163919	1204.431519
3230.755349	0.097657	0.163919	1294.081055
3230.756248	0.097625	0.163919	1381.845459
3230.757174	0.097639	0.163919	1472.259277
3230.758083	0.097720	0.163919	1561.086548
3230.758986	0.097577	0.163919	1649.198486
3230.759878	0.097676	0.163919	1736.325317
3230.760818	0.097665	0.163919	1828.130249
3230.761723	0.097639	0.163919	1916.493652
3231.695059	0.964911	0.137610	428.420410
3231.695964	0.651563	0.137610	1018.084473
3231.696850	0.105967	0.137610	1111.971069
3231.697801	0.097650	0.137610	1204.836304
3231.698708	0.097592	0.137610	1293.351807
3231.699598	0.097745	0.137610	1380.345215
3231.700525	0.097782	0.137610	1470.989136
3231.701430	0.097786	0.137610	1559.485107
3231.702335	0.097738	0.137610	1647.937988
3231.703227	0.097694	0.137610	1735.081055
3231.704167	0.097753	0.137610	1826.968628
3231.705077	0.097694	0.137610	1915.870239
3232.821979	0.965383	0.159359	433.457092
3232.822882	0.647831	0.159359	1018.448303
3232.823817	0.105278	0.159359	1116.883545
3232.824721	0.097698	0.159359	1205.202271
3232.825624	0.097712	0.159359	1293.436523
3232.826509	0.097782	0.159359	1379.973633
3232.827441	0.097745	0.159359	1471.072266
3232.828349	0.097720	0.159359	1559.801758
3232.829249	0.097672	0.159359	1647.706665
3232.830136	0.097687	0.159359	1734.354858
3232.831092	0.097811	0.159359	1827.862427
3232.832003	0.097734	0.159359	1916.898437
3233.760745	0.977618	0.140514	443.838745
3233.761677	0.605138	0.140514	1007.827332
3233.762570	0.103843	0.140514	1100.558960
3233.763475	0.097489	0.140514	1188.786499
3233.764394	0.097797	0.140514	1278.661621
3233.765295	0.097584	0.140514	1366.584961
3233.766192	0.097639	0.140514	1454.167236
3233.767120	0.097650	0.140514	1544.786621
3233.768037	0.097694	0.140514	1634.372070
3233.768942	0.097723	0.140514	1722.811768
3233.769829	0.097731	0.140514	1809.498901
3233.770786	0.097789	0.140514	1903.083252
3234.892234	0.950350	0.157204	417.203796
3234.893126	0.663453	0.157204	1009.004150
3234.894066	0.104015	0.157204	1106.778198
3234.894978	0.097548	0.157204	1195.741577
3234.895876	0.097716	0.157204	1283.490601
3234.896806	0.097723	0.157204	1374.373291
3234.897713	0.097782	0.157204	1463.061523
3234.898630	0.097698	0.157204	1552.650391
3234.899526	0.097793	0.157204	1640.272949
3234.900462	0.097694	0.157204	1731.714600
3234.901364	0.097745	0.157204	1819.880859
3234.902257	0.097643	0.157204	1907.075928
3235.827168	0.967262	0.143701	434.300659
3235.828083	0.626829	0.143701	1007.848816
3235.828985	0.104399	0.143701	1102.017090
3235.829879	0.097720	0.143701	1189.378540
3235.830831	0.097661	0.143701	1282.351929
3235.831742	0.097683	0.143701	1371.341187
3235.832641	0.097701	0.143701	1459.174805
3235.833572	0.097698	0.143701	1550.131470
3235.834473	0.097753	0.143701	1638.206665
3235.835373	0.097603	0.143701	1726.048950
3235.836261	0.097690	0.143701	1812.798096
3235.837197	0.097800	0.143701	1904.339111
3236.962252	0.950973	0.154795	415.575165
3236.963173	0.644033	0.154795	1008.729736
3236.964103	0.103363	0.154795	1104.857422
3236.965016	0.097610	0.154795	1193.975220
3236.965916	0.097709	0.154795	1281.913086
3236.966844	0.097734	0.154795	1372.610596
3236.967752	0.097738	0.154795	1461.356689
3236.968652	0.097614	0.154795	1549.208862
3236.969536	0.097657	0.154795	1635.538086
3236.970481	0.097734	0.154795	1727.897095
3236.971389	0.097705	0.154795	1816.613281
3236.972276	0.097636	0.154795	1903.215942
3237.893852	0.972642	0.147092	434.770782
3237.894780	0.612975	0.147092	1003.611450
3237.895680	0.103839	0.147092	1097.066650
3237.896605	0.097617	0.147092	1187.362549
3237.897512	0.097778	0.147092	1276.047485
3237.898413	0.097628	0.147092	1364.010498
3237.899302	0.097676	0.147092	1450.844238
3237.900239	0.097833	0.147092	1542.514038
3237.901143	0.097709	0.147092	1630.842773
3237.902038	0.097687	0.147092	1718.272461
3237.902924	0.097808	0.147092	1804.930054
3237.903873	0.097789	0.147092	1897.732056
3239.031756	0.948918	0.150996	415.626251
3239.032651	0.664241	0.150996	1010.121704
3239.033606	0.103429	0.150996	1108.896362
3239.034516	0.097606	0.150996	1197.718018
3239.035414	0.097808	0.150996	1285.549316
3239.036335	0.097745	0.150996	1375.572754
3239.037245	0.097786	0.150996	1464.557739
3239.038158	0.097687	0.150996	1553.745728
3239.039051	0.097712	0.150996	1641.002930
3239.039987	0.097672	0.150996	1732.424072
3239.040888	0.097687	0.150996	1820.439819
3239.041795	0.097756	0.150996	1909.104858
3239.961546	0.949288	0.150637	415.788269
3239.962437	0.673092	0.150637	1015.513306
3239.963379	0.104172	0.150637	1113.643677
3239.964297	0.097665	0.150637	1203.299927
3239.965204	0.097712	0.150637	1291.925049
3239.966091	0.097716	0.150637	1378.599243
3239.967041	0.097811	0.150637	1471.519897
3239.967948	0.097742	0.150637	1560.171631
3239.968838	0.097679	0.150637	1647.106323
3239.969758	0.097731	0.150637	1737.018555
3239.970665	0.097731	0.150637	1825.660278
3239.971570	0.097756	0.150637	1914.129761
3241.100750	0.960081	0.151020	424.355591
3241.101662	0.643923	0.151020	1011.613708
3241.102553	0.105377	0.151020	1105.504761
3241.103508	0.097712	0.151020	1198.820068
3241.104413	0.097767	0.151020	1287.299561
3241.105314	0.097720	0.151020	1375.345093
3241.106244	0.097804	0.151020	1466.302734
3241.107148	0.097819	0.151020	1554.730713
3241.108046	0.097654	0.151020	1642.423828
3241.108932	0.097632	0.151020	1728.925659
3241.109874	0.097745	0.151020	1821.001831
3241.110771	0.097716	0.151020	1908.653076
3242.030312	0.984609	0.151999	449.966492
3242.031246	0.587113	0.151999	998.330078
3242.032155	0.102968	0.151999	1091.927612
3242.033048	0.097698	0.151999	1179.171753
3242.033996	0.097771	0.151999	1271.858643
3242.034904	0.097731	0.151999	1360.598145
3242.035795	0.097745	0.151999	1447.689209
3242.036741	0.097885	0.151999	1540.287964
3242.037638	0.097687	0.151999	1627.912964
3242.038528	0.097756	0.151999	1714.916138
3242.039462	0.097789	0.151999	1806.251343
3242.040370	0.097797	0.151999	1895.050659
3243.167711	0.970902	0.145940	442.731384
3243.168607	0.640115	0.145940	1016.274231
3243.169547	0.104297	0.145940	1114.313232
3243.170459	0.097709	0.145940	1203.423584
3243.171362	0.097771	0.145940	1291.710815
3243.172253	0.097727	0.145940	1378.785645
3243.173208	0.097808	0.145940	1472.191895
3243.174112	0.097789	0.145940	1560.593384
3243.175012	0.097683	0.145940	1648.508179
3243.175923	0.097778	0.145940	1737.584229
3243.176835	0.097830	0.145940	1826.804810
3243.177739	0.097756	0.145940	1915.176514
3244.099837	0.993644	0.156128	488.872742
3244.100763	0.565873	0.156128	1012.870972
3244.101658	0.102953	0.156128	1105.013794
3244.102546	0.097581	0.156128	1191.665283
3244.103492	0.097830	0.156128	1284.212036
3244.104383	0.097694	0.156128	1371.257446
3244.105295	0.097654	0.156128	1460.317749
3244.106193	0.097665	0.156128	1548.020752
3244.107137	0.097782	0.156128	1640.326904
3244.108044	0.097665	0.156128	1728.908813
3244.108935	0.097712	0.156128	1815.970581
3244.109885	0.097742	0.156128	1908.825195
3245.236498	1.015770	0.143966	516.011230
3245.237441	0.529468	0.143966	1015.299316
3245.238337	0.101675	0.143966	1106.399902
3245.239226	0.097690	0.143966	1193.246704
3245.240180	0.097782	0.143966	1286.530762
3245.241079	0.097694	0.143966	1374.357788
3245.241970	0.097694	0.143966	1461.403198
3245.242900	0.097826	0.143966	1552.381348
3245.243806	0.097877	0.143966	1641.058105
3245.244703	0.097716	0.143966	1728.709473
3245.245595	0.097778	0.143966	1815.927734
3245.246540	0.097775	0.143966	1908.324829
3246.169290	0.949940	0.157699	417.973663
3246.170280	0.558567	0.157699	970.954834
3246.171176	0.102415	0.157699	1062.718262
3246.172066	0.097657	0.157699	1149.633423
3246.173000	0.097800	0.157699	1240.978882
3246.173914	0.097709	0.157699	1330.284668
3246.174816	0.097775	0.157699	1418.477417
3246.175706	0.097760	0.157699	1505.483887
3246.176653	0.097822	0.157699	1598.121582
3246.177553	0.097720	0.157699	1686.069336
3246.178444	0.097701	0.157699	1773.121338
3246.179361	0.097778	0.157699	1862.784058
3247.301836	0.952372	0.144627	418.091217
3247.302729	0.660853	0.144627	1008.233154
3247.303701	0.102920	0.144627	1108.271362
3247.304599	0.097614	0.144627	1195.928345
3247.305488	0.097742	0.144627	1282.820679
3247.306412	0.097665	0.144627	1373.062988
3247.307321	0.097727	0.144627	1461.896851
3247.308214	0.097657	0.144627	1549.104980
3247.309107	0.097625	0.144627	1636.283691
3247.310043	0.097775	0.144627	1727.800781
3247.310957	0.097632	0.144627	1817.036255
3247.311889	0.097767	0.144627	1908.155396
3248.239110	1.013782	0.159906	504.863281
3248.240029	0.563474	0.159906	1022.695984
3248.240923	0.102612	0.159906	1114.431396
3248.241819	0.097599	0.159906	1201.880005
3248.242768	0.097848	0.159906	1294.737671
3248.243674	0.097683	0.159906	1383.238525
3248.244575	0.097716	0.159906	1471.280762
3248.245494	0.097804	0.159906	1561.162598
3248.246386	0.097698	0.159906	1648.308960
3248.247341	0.097665	0.159906	1741.578857
3248.248256	0.097698	0.159906	1830.972290
3248.249142	0.097646	0.159906	1917.487061
3249.369034	0.951383	0.142915	416.705750
3249.369984	0.636859	0.142915	1021.721924
3249.370887	0.103176	0.142915	1114.890137
3249.371810	0.097687	0.142915	1205.055054
3249.372704	0.097830	0.142915	1292.514648
3249.373657	0.097767	0.142915	1385.686890
3249.374567	0.097657	0.142915	1474.555176
3249.375463	0.097767	0.142915	1562.154663
3249.376398	0.097786	0.142915	1653.584229
3249.377308	0.097650	0.142915	1742.445801
3249.378226	0.097687	0.142915	1832.122314
3249.379115	0.097668	0.142915	1918.949585
3250.308873	1.012914	0.159282	510.508575
3250.309795	0.551041	0.159282	1018.568604
3250.310687	0.102480	0.159282	1109.981201
3250.311577	0.097639	0.159282	1196.880005
3250.312511	0.097775	0.159282	1288.201538
3250.313418	0.097734	0.159282	1376.846558
3250.314313	0.097672	0.159282	1464.263062
3250.315233	0.097767	0.159282	1554.208984
3250.316145	0.097742	0.159282	1643.349365
3250.317049	0.097636	0.159282	1731.611816
3250.317949	0.097709	0.159282	1819.549683
3250.318874	0.097731	0.159282	1909.950562
3251.435738	0.966500	0.143108	431.059113
3251.436661	0.634325	0.143108	1016.541016
3251.437564	0.104418	0.143108	1110.830200
3251.438486	0.097625	0.143108	1200.839966
3251.439399	0.097819	0.143108	1290.148315
3251.440311	0.097672	0.143108	1379.225342
3251.441211	0.097661	0.143108	1467.120361
3251.442151	0.097866	0.143108	1559.114624
3251.443053	0.097760	0.143108	1647.294189
3251.443956	0.097727	0.143108	1735.541748
3251.444876	0.097661	0.143108	1825.390015
3251.445762	0.097789	0.143108	1912.031372
3252.378063	0.958608	0.160680	420.829071
3252.379027	0.573981	0.160680	974.146484
3252.379937	0.102770	0.160680	1067.666992
3252.380832	0.097643	0.160680	1155.057373
3252.381767	0.097826	0.160680	1246.524658
3252.382670	0.097833	0.160680	1334.868042
3252.383556	0.097599	0.160680	1421.340698
3252.384449	0.097709	0.160680	1508.594604
3252.385377	0.097720	0.160680	1599.278564
3252.386282	0.097753	0.160680	1687.744751
3252.387189	0.097595	0.160680	1776.263672
3252.388081	0.097764	0.160680	1863.468872
3253.501962	1.022322	0.143950	511.160858
3253.502887	0.548807	0.143950	1018.807678
3253.503778	0.102477	0.143950	1110.114502
3253.504663	0.097559	0.143950	1196.453857
3253.505604	0.097811	0.143950	1288.494263
3253.506506	0.097764	0.143950	1376.677124
3253.507408	0.097672	0.143950	1464.777344
3253.508335	0.097760	0.143950	1555.400879
3253.509240	0.097793	0.143950	1643.903564
3253.510142	0.097690	0.143950	1732.020386
3253.511039	0.097595	0.143950	1819.563232
3253.511986	0.097775	0.143950	1912.155884
3254.448375	0.994457	0.158142	481.317078
3254.449304	0.562255	0.158142	1003.651611
3254.450205	0.102671	0.158142	1096.158081
3254.451093	0.097679	0.158142	1182.897461
3254.452039	0.097756	0.158142	1275.375000
3254.452949	0.097731	0.158142	1364.309937
3254.453844	0.097716	0.158142	1451.765869
3254.454758	0.097767	0.158142	1541.125244
3254.455693	0.097815	0.158142	1632.582275
3254.456602	0.097753	0.158142	1721.439453
3254.457491	0.097720	0.158142	1808.312256
3254.458424	0.097734	0.158142	1899.498413
3255.570382	0.954811	0.143777	421.071564
3255.571302	0.638741	0.143777	1008.713745
3255.572245	0.102927	0.143777	1105.774170
3255.573165	0.097584	0.143777	1195.551636
3255.574067	0.097742	0.143777	1283.714600
3255.574995	0.097804	0.143777	1374.476685
3255.575903	0.097712	0.143777	1463.199585
3255.576811	0.097731	0.143777	1551.939087
3255.577701	0.097709	0.143777	1638.899902
3255.578638	0.097808	0.143777	1730.545654
3255.579545	0.097709	0.143777	1819.167480
3255.580432	0.097727	0.143777	1905.851318
3256.514806	0.984012	0.158037	476.262024
3256.515739	0.557911	0.158037	996.793335
3256.516643	0.102495	0.158037	1089.448975
3256.517534	0.097603	0.158037	1176.412842
3256.518479	0.097841	0.158037	1268.872192
3256.519378	0.097694	0.158037	1356.699219
3256.520276	0.097665	0.158037	1444.402222
3256.521180	0.097749	0.158037	1532.767334
3256.522102	0.097679	0.158037	1622.827759
3256.523010	0.097694	0.158037	1711.533936
3256.523906	0.097720	0.158037	1799.090820
3256.524833	0.097844	0.158037	1889.792480
3257.640141	0.951306	0.143765	415.720795
3257.641037	0.651489	0.143765	999.455200
3257.641996	0.103330	0.143765	1098.548706
3257.642915	0.097636	0.143765	1188.275757
3257.643816	0.097738	0.143765	1276.337769
3257.644746	0.097863	0.143765	1367.349976
3257.645651	0.097734	0.143765	1455.799561
3257.646550	0.097742	0.143765	1543.669312
3257.647439	0.097837	0.143765	1630.646362
3257.648399	0.097811	0.143765	1724.545166
3257.649302	0.097723	0.143765	1812.789429
3257.650200	0.097657	0.143765	1900.485840
3258.582236	0.967833	0.159874	439.396271
3258.583137	0.642308	0.159874	1018.116089
3258.584025	0.105524	0.159874	1111.821167
3258.584972	0.097657	0.159874	1204.302734
3258.585884	0.097742	0.159874	1293.443115
3258.586780	0.097734	0.159874	1381.013062
3258.587694	0.097800	0.159874	1470.402588
3258.588620	0.097863	0.159874	1561.023315
3258.589528	0.097712	0.159874	1649.746216
3258.590422	0.097731	0.159874	1737.117432
3258.591361	0.097797	0.159874	1828.948486
3258.592270	0.097756	0.159874	1917.808960
3259.709643	0.949878	0.143362	416.046539
3259.710538	0.667269	0.143362	1013.252563
3259.711508	0.103114	0.143362	1113.273193
3259.712419	0.097606	0.143362	1202.192383
3259.713315	0.097694	0.143362	1289.726318
3259.714225	0.097698	0.143362	1378.631226
3259.715149	0.097808	0.143362	1469.005493
3259.716053	0.097705	0.143362	1557.330933
3259.716950	0.097694	0.143362	1644.962524
3259.717883	0.097723	0.143362	1736.138428
3259.718792	0.097771	0.143362	1825.012207
3259.719694	0.097668	0.143362	1913.109131
3260.648403	0.969576	0.159077	432.431091
3260.649325	0.626558	0.159077	1010.117249
3260.650220	0.104780	0.159077	1103.895630
3260.651169	0.097676	0.159077	1196.589966
3260.652071	0.097742	0.159077	1284.752930
3260.652964	0.097731	0.159077	1372.026489
3260.653853	0.097753	0.159077	1458.928589
3260.654790	0.097771	0.159077	1550.540039
3260.655699	0.097734	0.159077	1639.380615
3260.656597	0.097716	0.159077	1727.129639
3260.657523	0.097749	0.159077	1817.645264
3260.658440	0.097738	0.159077	1907.270996
3261.779663	0.953558	0.143741	419.565704
3261.780560	0.650709	0.143741	1003.251831
3261.781525	0.103081	0.143741	1102.725098
3261.782426	0.097577	0.143741	1190.641846
3261.783321	0.097636	0.143741	1278.025635
3261.784265	0.097782	0.143741	1370.331787
3261.785169	0.097738	0.143741	1458.687012
3261.786074	0.097676	0.143741	1547.083618
3261.786961	0.097690	0.143741	1633.734985
3261.787902	0.097837	0.143741	1725.799561
3261.788807	0.097771	0.143741	1814.282349
3261.789707	0.097661	0.143741	1902.177368
3262.713286	0.950259	0.160257	412.412292
3262.714233	0.615381	0.160257	995.177917
3262.715147	0.103411	0.160257	1089.695312
3262.716050	0.097617	0.160257	1177.843628
3262.716938	0.097676	0.160257	1264.579712
3262.717892	0.097738	0.160257	1357.821777
3262.718796	0.097698	0.160257	1446.140503
3262.719688	0.097668	0.160257	1533.260742
3262.720599	0.097687	0.160257	1622.253418
3262.721534	0.097654	0.160257	1713.559692
3262.722444	0.097628	0.160257	1802.401367
3262.723343	0.097701	0.160257	1890.234985
3263.849173	0.962124	0.144365	428.145172
3263.850068	0.656818	0.144365	1015.996948
3263.851025	0.103308	0.144365	1114.862793
3263.851924	0.097654	0.144365	1202.653564
3263.852820	0.097767	0.144365	1290.253052
3263.853708	0.097687	0.144365	1376.998901
3263.854651	0.097775	0.144365	1469.200439
3263.855559	0.097731	0.144365	1557.939941
3263.856456	0.097775	0.144365	1645.643799
3263.857387	0.097848	0.144365	1736.740234
3263.858299	0.097808	0.144365	1825.940796
3263.859198	0.097657	0.144365	1913.734863
3264.780544	0.978820	0.156293	479.621582
3264.781471	0.557688	0.156293	996.598328
3264.782371	0.102506	0.156293	1088.853760
3264.783262	0.097584	0.156293	1175.801270
3264.784200	0.097778	0.156293	1267.517334
3264.785107	0.097775	0.156293	1356.198975
3264.786009	0.097760	0.156293	1444.378540
3264.786898	0.097749	0.156293	1531.277466
3264.787853	0.097804	0.156293	1624.680298
3264.788757	0.097650	0.156293	1712.956055
3264.789654	0.097749	0.156293	1800.636963
3264.790582	0.097727	0.156293	1891.327637
3265.917640	0.960619	0.146790	419.790466
3265.918609	0.574409	0.146790	976.392944
3265.919509	0.102869	0.146790	1068.974731
3265.920398	0.097621	0.146790	1155.759644
3265.921334	0.097738	0.146790	1247.242432
3265.922245	0.097804	0.146790	1336.341797
3265.923170	0.097701	0.146790	1426.715576
3265.924071	0.097701	0.146790	1514.744507
3265.925028	0.097767	0.146790	1608.307861
3265.925930	0.097679	0.146790	1696.414673
3265.926853	0.097650	0.146790	1786.545776
3265.927743	0.097705	0.146790	1873.503296
3266.847435	0.954027	0.155387	417.863861
3266.848415	0.579518	0.155387	985.791260
3266.849310	0.102832	0.155387	1077.825928
3266.850201	0.097617	0.155387	1164.802856
3266.851129	0.097775	0.155387	1255.537720
3266.852053	0.097771	0.155387	1345.878174
3266.852961	0.097643	0.155387	1434.537842
3266.853854	0.097712	0.155387	1521.795044
3266.854805	0.097804	0.155387	1614.806641
3266.855720	0.097668	0.155387	1704.173340
3266.856640	0.097694	0.155387	1794.051880
3266.857528	0.097625	0.155387	1880.742432
3267.985362	0.960747	0.147817	430.414703
3267.986267	0.641982	0.147817	1011.408813
3267.987182	0.105198	0.147817	1107.664795
3267.988119	0.097668	0.147817	1199.180176
3267.989023	0.097731	0.147817	1287.528809
3267.989907	0.097650	0.147817	1373.851562
3267.990857	0.097716	0.147817	1466.681885
3267.991761	0.097636	0.147817	1554.944336
3267.992654	0.097676	0.147817	1642.168823
3267.993539	0.097683	0.147817	1728.618408
3267.994477	0.097716	0.147817	1820.276123
3267.995379	0.097672	0.147817	1908.376343
3268.914905	0.967647	0.151568	436.408600
3268.915806	0.644410	0.151568	1017.022339
3268.916697	0.105363	0.151568	1110.900391
3268.917666	0.097749	0.151568	1205.619141
3268.918573	0.097657	0.151568	1294.194458
3268.919471	0.097734	0.151568	1381.959961
3268.920362	0.097690	0.151568	1469.002075
3268.921293	0.097716	0.151568	1559.975708
3268.922187	0.097610	0.151568	1647.238892
3268.923081	0.097742	0.151568	1734.619995
3268.924016	0.097716	0.151568	1825.984497
3268.924930	0.097672	0.151568	1915.256836
3270.053631	1.015928	0.152547	500.852356
3270.054549	0.570846	0.152547	1024.888916
3270.055446	0.103019	0.152547	1117.296753
3270.056334	0.097588	0.152547	1203.954834
3270.057284	0.097874	0.152547	1296.934692
3270.058185	0.097676	0.152547	1384.940552
3270.059085	0.097683	0.152547	1472.855347
3270.060016	0.097771	0.152547	1563.880127
3270.060925	0.097822	0.152547	1652.800537
3270.061828	0.097753	0.152547	1741.071167
3270.062719	0.097749	0.152547	1828.165527
3270.063657	0.097877	0.152547	1919.974365
3270.983159	0.969807	0.149892	468.416840
3270.984092	0.571791	0.149892	1001.897583
3270.985002	0.102550	0.149892	1095.218140
3270.985895	0.097657	0.149892	1182.426270
3270.986826	0.097778	0.149892	1273.457886
3270.987735	0.097775	0.149892	1362.335083
3270.988641	0.097676	0.149892	1450.829346
3270.989530	0.097771	0.149892	1537.747803
3270.990473	0.097771	0.149892	1629.945801
3270.991376	0.097709	0.149892	1718.176758
3270.992269	0.097657	0.149892	1805.384888
3270.993200	0.097709	0.149892	1896.351685
3272.120065	1.013115	0.154694	498.452667
3272.120987	0.558391	0.154694	1013.289307
3272.121889	0.102546	0.154694	1105.786133
3272.122776	0.097636	0.154694	1192.388794
3272.123727	0.097826	0.154694	1285.421265
3272.124636	0.097705	0.154694	1374.235229
3272.125537	0.097756	0.154694	1462.313721
3272.126473	0.097764	0.154694	1553.820557
3272.127374	0.097709	0.154694	1641.856079
3272.128271	0.097679	0.154694	1729.474487
3272.129158	0.097727	0.154694	1816.158447
3272.130097	0.097848	0.154694	1908.037598
3273.052918	0.973890	0.144518	466.493469
3273.053857	0.570824	0.144518	1002.497192
3273.054757	0.102477	0.144518	1094.726318
3273.055654	0.097614	0.144518	1182.285645
3273.056592	0.097687	0.144518	1273.915771
3273.057501	0.097683	0.144518	1362.709717
3273.058406	0.097614	0.144518	1451.049927
3273.059299	0.097698	0.144518	1538.294067
3273.060252	0.097797	0.144518	1631.494263
3273.061160	0.097625	0.144518	1720.137329
3273.062054	0.097804	0.144518	1807.574097
3273.062992	0.097712	0.144518	1899.228271
3274.185676	0.950559	0.156986	420.147125
3274.186649	0.557900	0.156986	962.984131
3274.187563	0.102253	0.156986	1056.443726
3274.188471	0.097636	0.156986	1145.096802
3274.189363	0.097716	0.156986	1232.259521
3274.190311	0.097771	0.156986	1324.946411
3274.191219	0.097679	0.156986	1413.639404
3274.192111	0.097614	0.156986	1500.710693
3274.193053	0.097727	0.156986	1592.769531
3274.193965	0.097705	0.156986	1681.876587
3274.194861	0.097683	0.156986	1769.400635
3274.195750	0.097603	0.156986	1856.169312
3275.123684	0.973066	0.143145	444.691345
3275.124601	0.611228	0.143145	1005.187439
3275.125497	0.104121	0.143145	1098.479980
3275.126441	0.097646	0.143145	1190.658203
3275.127348	0.097727	0.143145	1279.296631
3275.128250	0.097694	0.143145	1367.416748
3275.129141	0.097687	0.143145	1454.455688
3275.130097	0.097701	0.143145	1547.858276
3275.130998	0.097698	0.143145	1635.883911
3275.131890	0.097731	0.143145	1723.059692
3275.132830	0.097760	0.143145	1814.954102
3275.133731	0.097855	0.143145	1903.121704
3276.251089	0.962695	0.159657	429.362091
3276.251991	0.650581	0.159657	1016.186157
3276.252946	0.104235	0.159657	1115.730225
3276.253847	0.097668	0.159657	1203.729492
3276.254750	0.097738	0.159657	1291.986938
3276.255635	0.097705	0.159657	1378.455933
3276.256570	0.097826	0.159657	1469.923218
3276.257485	0.097734	0.159657	1559.350220
3276.258383	0.097764	0.159657	1647.141968
3276.259316	0.097848	0.159657	1738.434082
3276.260241	0.097764	0.159657	1828.865479
3276.261144	0.097764	0.159657	1917.146118
3277.193723	1.003718	0.139854	479.777313
3277.194624	0.605149	0.139854	1025.016479
3277.195513	0.104257	0.139854	1117.700562
3277.196478	0.097687	0.139854	1211.968262
3277.197379	0.097654	0.139854	1299.954346
3277.198278	0.097694	0.139854	1387.781372
3277.199204	0.097804	0.139854	1478.347900
3277.200122	0.097797	0.139854	1568.125244
3277.201028	0.097687	0.139854	1656.629395
3277.201931	0.097654	0.139854	1744.810791
3277.202859	0.097797	0.139854	1835.566040
3277.203763	0.097749	0.139854	1923.931152
3278.318026	0.950072	0.162666	415.181488
3278.318919	0.655162	0.162666	1000.241455
3278.319893	0.102986	0.162666	1100.549683
3278.320802	0.097603	0.162666	1189.270386
3278.321690	0.097654	0.162666	1275.986938
3278.322631	0.097745	0.162666	1367.965332
3278.323539	0.097650	0.162666	1456.631714
3278.324436	0.097753	0.162666	1544.315918
3278.325321	0.097679	0.162666	1630.762207
3278.326246	0.097709	0.162666	1721.142822
3278.327154	0.097672	0.162666	1809.829102
3278.328056	0.097679	0.162666	1897.935913
3279.263457	0.966343	0.139406	432.921570
3279.264359	0.646981	0.139406	1016.498657
3279.265249	0.105575	0.139406	1110.460327
3279.266196	0.097643	0.139406	1202.928101
3279.267117	0.097709	0.139406	1292.917847
3279.268012	0.097690	0.139406	1380.350830
3279.268911	0.097654	0.139406	1468.141602
3279.269839	0.097676	0.139406	1558.784668
3279.270750	0.097657	0.139406	1647.750610
3279.271648	0.097621	0.139406	1735.414185
3279.272590	0.097793	0.139406	1827.535156
3279.273490	0.097797	0.139406	1915.552124
3280.384966	0.948574	0.163298	411.681213
3280.385925	0.592738	0.163298	980.117004
3280.386834	0.103066	0.163298	1073.804321
3280.387743	0.097573	0.163298	1162.498413
3280.388632	0.097632	0.163298	1249.293091
3280.389574	0.097782	0.163298	1341.403687
3280.390481	0.097581	0.163298	1429.909302
3280.391371	0.097643	0.163298	1516.811401
3280.392306	0.097734	0.163298	1608.192993
3280.393213	0.097749	0.163298	1696.851318
3280.394109	0.097573	0.163298	1784.276978
3280.394998	0.097698	0.163298	1871.130249
3281.332226	0.979944	0.137038	484.092255
3281.333143	0.572629	0.137038	1009.193359
3281.334045	0.102770	0.137038	1101.891724
3281.334929	0.097599	0.137038	1188.169189
3281.335868	0.097742	0.137038	1279.948608
3281.336773	0.097705	0.137038	1368.371704
3281.337676	0.097734	0.137038	1456.625854
3281.338568	0.097683	0.137038	1543.759155
3281.339520	0.097833	0.137038	1636.896362
3281.340424	0.097716	0.137038	1725.231689
3281.341321	0.097701	0.137038	1812.869873
3281.342255	0.097786	0.137038	1904.201660
3282.451922	0.967760	0.163854	430.653198
3282.452880	0.579749	0.163854	986.052246
3282.453792	0.102887	0.163854	1079.885132
3282.454689	0.097588	0.163854	1167.421509
3282.455623	0.097815	0.163854	1258.780640
3282.456532	0.097712	0.163854	1347.601196
3282.457442	0.097698	0.163854	1436.506104
3282.458331	0.097734	0.163854	1523.391968
3282.459280	0.097745	0.163854	1616.152344
3282.460187	0.097760	0.163854	1704.820679
3282.461077	0.097679	0.163854	1791.755371
3282.461987	0.097782	0.163854	1880.736938
3283.400913	0.958861	0.135632	425.734344
3283.401812	0.638947	0.135632	1000.147339
3283.402774	0.102814	0.135632	1099.054199
3283.403688	0.097625	0.135632	1188.282959
3283.404581	0.097672	0.135632	1275.504150
3283.405513	0.097698	0.135632	1366.558472
3283.406419	0.097687	0.135632	1455.062744
3283.407327	0.097668	0.135632	1543.745728
3283.408214	0.097661	0.135632	1630.371094
3283.409156	0.097672	0.135632	1722.378174
3283.410063	0.097778	0.135632	1811.063110
3283.410960	0.097654	0.135632	1898.658569
3284.520169	0.988550	0.164007	458.687103
3284.521069	0.626982	0.164007	1022.971313
3284.522025	0.104147	0.164007	1122.535645
3284.522921	0.097628	0.164007	1210.010498
3284.523821	0.097738	0.164007	1297.974731
3284.524707	0.097650	0.164007	1384.492798
3284.525641	0.097723	0.164007	1475.766479
3284.526545	0.097786	0.164007	1564.164673
3284.527449	0.097661	0.164007	1652.450317
3284.528343	0.097694	0.164007	1739.788818
3284.529285	0.097797	0.164007	1831.913208
3284.530192	0.097614	0.164007	1920.448730
3285.469141	0.964288	0.137332	431.036865
3285.470072	0.614359	0.137332	1003.005188
3285.470959	0.104454	0.137332	1095.656250
3285.471907	0.097621	0.137332	1188.200806
3285.472812	0.097709	0.137332	1276.627197
3285.473709	0.097625	0.137332	1364.196411
3285.474595	0.097687	0.137332	1450.746826
3285.475519	0.097745	0.137332	1541.063477
3285.476425	0.097698	0.137332	1629.577637
3285.477332	0.097701	0.137332	1718.192871
3285.478225	0.097683	0.137332	1805.423828
3285.479182	0.097822	0.137332	1899.039795
3286.588898	0.973825	0.163077	441.142487
3286.589828	0.608588	0.163077	1007.129028
3286.590719	0.103964	0.163077	1099.760620
3286.591645	0.097632	0.163077	1190.167725
3286.592546	0.097782	0.163077	1278.269287
3286.593453	0.097661	0.163077	1366.847900
3286.594354	0.097676	0.163077	1454.853760
3286.595285	0.097727	0.163077	1545.837646
3286.596196	0.097731	0.163077	1634.870361
3286.597098	0.097738	0.163077	1723.030029
3286.597985	0.097661	0.163077	1809.655396
3286.598936	0.097767	0.163077	1902.632080
3287.535582	0.965526	0.136832	433.521210
3287.536507	0.618472	0.136832	1005.607544
3287.537395	0.104257	0.136832	1098.187378
3287.538322	0.097632	0.136832	1188.692139
3287.539234	0.097767	0.136832	1277.855957
3287.540137	0.097679	0.136832	1366.060547
3287.541028	0.097698	0.136832	1453.109253
3287.541982	0.097771	0.136832	1546.382812
3287.542882	0.097694	0.136832	1634.307495
3287.543782	0.097687	0.136832	1722.225586
3287.544670	0.097632	0.136832	1808.922607
3287.545619	0.097683	0.136832	1901.623901
3288.658903	0.968492	0.161663	433.884613
3288.659833	0.620519	0.161663	1010.967041
3288.660725	0.104498	0.161663	1104.179565
3288.661664	0.097705	0.161663	1195.924683
3288.662566	0.097775	0.161663	1284.117432
3288.663459	0.097731	0.161663	1371.390991
3288.664348	0.097723	0.161663	1458.267090
3288.665288	0.097771	0.161663	1550.171875
3288.666205	0.097811	0.161663	1639.864868
3288.667111	0.097701	0.161663	1728.382324
3288.668026	0.097782	0.161663	1817.852783
3288.668946	0.097782	0.161663	1907.812256
3289.602273	0.972081	0.140002	439.380737
3289.603184	0.632728	0.140002	1015.796204
3289.604076	0.104806	0.140002	1109.283081
3289.605014	0.097577	0.140002	1200.810181
3289.605923	0.097731	0.140002	1289.647461
3289.606825	0.097617	0.140002	1377.698120
3289.607714	0.097679	0.140002	1464.535156
3289.608660	0.097855	0.140002	1557.106201
3289.609564	0.097533	0.140002	1645.276001
3289.610456	0.097617	0.140002	1732.350586
3289.611401	0.097606	0.140002	1824.588501
3289.612296	0.097683	0.140002	1912.014893
3290.729175	0.968979	0.158855	433.133820
3290.730083	0.639847	0.158855	1014.115234
3290.730972	0.105366	0.158855	1107.785767
3290.731946	0.097683	0.158855	1202.929077
3290.732859	0.097668	0.158855	1292.100342
3290.733754	0.097764	0.158855	1379.598877
3290.734688	0.097775	0.158855	1470.920410
3290.735594	0.097720	0.158855	1559.454468
3290.736498	0.097643	0.158855	1647.723633
3290.737385	0.097723	0.158855	1734.404297
3290.738335	0.097786	0.158855	1827.300659
3290.739228	0.097727	0.158855	1914.570923
3291.664077	0.957122	0.145441	420.176361
3291.665058	0.569575	0.145441	978.929565
3291.665960	0.102499	0.145441	1071.383423
3291.666857	0.097614	0.145441	1158.942749
3291.667784	0.097632	0.145441	1249.447510
3291.668691	0.097712	0.145441	1338.072632
3291.669597	0.097599	0.145441	1426.497192
3291.670490	0.097646	0.145441	1513.695557
3291.671441	0.097716	0.145441	1606.623535
3291.672343	0.097804	0.145441	1694.842651
3291.673242	0.097701	0.145441	1782.676270
3291.674131	0.097694	0.145441	1869.526367
3292.799446	0.970627	0.158219	438.723572
3292.800350	0.640107	0.158219	1017.380676
3292.801299	0.104095	0.158219	1116.167236
3292.802206	0.097577	0.158219	1204.669434
3292.803104	0.097705	0.158219	1292.408569
3292.804016	0.097657	0.158219	1381.472168
3292.804918	0.097745	0.158219	1469.638428
3292.805866	0.097643	0.158219	1562.203857
3292.806771	0.097614	0.158219	1650.544067
3292.807664	0.097657	0.158219	1737.752197
3292.808594	0.097646	0.158219	1828.563477
3292.809505	0.097745	0.158219	1917.609497
3293.735645	0.969847	0.146166	431.582123
3293.736557	0.638438	0.146166	1013.837158
3293.737444	0.105154	0.146166	1107.108643
3293.738366	0.097731	0.146166	1197.216309
3293.739310	0.097720	0.146166	1289.463745
3293.740209	0.097661	0.146166	1377.261108
3293.741099	0.097646	0.146166	1464.166504
3293.742048	0.097628	0.146166	1556.815674
3293.742946	0.097665	0.146166	1644.518677
3293.743857	0.097628	0.146166	1733.458008
3293.744754	0.097672	0.146166	1821.069946
3293.745689	0.097610	0.146166	1912.335205
3294.868691	0.963453	0.155935	427.773285
3294.869604	0.631516	0.155935	1004.347534
3294.870534	0.103451	0.155935	1100.556885
3294.871429	0.097625	0.155935	1187.930786
3294.872390	0.097668	0.155935	1281.790161
3294.873296	0.097679	0.155935	1370.287720
3294.874187	0.097709	0.155935	1457.346191
3294.875127	0.097709	0.155935	1549.192383
3294.876031	0.097654	0.155935	1637.471436
3294.876949	0.097646	0.155935	1727.110962
3294.877835	0.097665	0.155935	1813.641968
3294.878777	0.097676	0.155935	1905.652588
3295.802583	0.969481	0.149159	434.327576
3295.803491	0.641931	0.149159	1017.201050
3295.804425	0.103704	0.149159	1114.060181
3295.805333	0.097573	0.149159	1202.656738
3295.806241	0.097694	0.149159	1291.363037
3295.807132	0.097657	0.149159	1378.375854
3295.808075	0.097672	0.149159	1470.480713
3295.808983	0.097687	0.149159	1559.180298
3295.809874	0.097628	0.149159	1646.166992
3295.810824	0.097690	0.149159	1738.972900
3295.811720	0.097676	0.149159	1826.490356
3295.812619	0.097676	0.149159	1914.300903
3296.937205	0.969217	0.152462	468.132050
3296.938129	0.575486	0.152462	999.880981
3296.939046	0.102693	0.152462	1094.050293
3296.939935	0.097544	0.152462	1180.766846
3296.940886	0.097712	0.152462	1273.691284
3296.941790	0.097679	0.152462	1361.993530
3296.942684	0.097661	0.152462	1449.302612
3296.943578	0.097654	0.152462	1536.605103
3296.944522	0.097745	0.152462	1628.876709
3296.945431	0.097672	0.152462	1717.660645
3296.946332	0.097657	0.152462	1805.650024
3296.947260	0.097723	0.152462	1896.337280
3297.870870	1.032781	0.151818	531.882080
3297.871789	0.533665	0.151818	1022.319763
3297.872686	0.102026	0.151818	1113.837402
3297.873575	0.097548	0.151818	1200.557251
3297.874510	0.097775	0.151818	1291.976562
3297.875420	0.097694	0.151818	1380.878174
3297.876317	0.097672	0.151818	1468.490112
3297.877244	0.097742	0.151818	1559.096680
3297.878155	0.097694	0.151818	1648.095947
3297.879061	0.097617	0.151818	1736.537109
3297.879949	0.097643	0.151818	1823.243896
3297.880890	0.097804	0.151818	1915.277466
3299.006409	0.945897	0.149417	407.681702
3299.007356	0.611155	0.149417	986.445251
3299.008279	0.103103	0.149417	1081.609375
3299.009190	0.097566	0.149417	1170.491943
3299.010081	0.097676	0.149417	1257.521118
3299.011020	0.097701	0.149417	1349.262695
3299.011926	0.097676	0.149417	1437.756958
3299.012819	0.097657	0.149417	1524.965088
3299.013760	0.097665	0.149417	1616.867676
3299.014658	0.097701	0.149417	1704.603516
3299.015562	0.097657	0.149417	1792.885864
3299.016457	0.097643	0.149417	1880.276123
3299.939536	0.951361	0.153868	417.647522
3299.940490	0.611415	0.153868	1000.937256
3299.941391	0.103231	0.153868	1093.948608
3299.942293	0.097628	0.153868	1182.009277
3299.943184	0.097617	0.153868	1268.986206
3299.944120	0.097753	0.153868	1360.482666
3299.945025	0.097690	0.153868	1448.892456
3299.945930	0.097720	0.153868	1537.328857
3299.946834	0.097705	0.153868	1625.654297
3299.947757	0.097731	0.153868	1715.859741
3299.948668	0.097690	0.153868	1804.855713
3299.949558	0.097782	0.153868	1891.881714
3301.073916	1.001191	0.148103	479.570679
3301.074837	0.579126	0.148103	1012.945740
3301.075734	0.103220	0.148103	1105.534302
3301.076620	0.097650	0.148103	1192.052368
3301.077573	0.097712	0.148103	1285.172241
3301.078477	0.097654	0.148103	1373.451294
3301.079375	0.097690	0.148103	1461.177246
3301.080311	0.097701	0.148103	1552.625732
3301.081216	0.097745	0.148103	1641.085327
3301.082122	0.097636	0.148103	1729.543091
3301.083015	0.097636	0.148103	1816.731567
3301.083969	0.097804	0.148103	1910.036499
3302.009040	0.961802	0.156337	428.001801
3302.009940	0.639496	0.156337	1003.548096
3302.010920	0.102360	0.156337	1103.860474
3302.011828	0.097581	0.156337	1192.463623
3302.012730	0.097690	0.156337	1280.580444
3302.013670	0.097804	0.156337	1372.516113
3302.014573	0.097632	0.156337	1460.677612
3302.015477	0.097694	0.156337	1548.993042
3302.016364	0.097665	0.156337	1635.621704
3302.017293	0.097789	0.156337	1726.468018
3302.018206	0.097756	0.156337	1815.719604
3302.019102	0.097646	0.156337	1903.210815
3303.141074	0.960959	0.145566	425.705048
3303.141978	0.652983	0.145566	1016.002075
3303.142866	0.105846	0.145566	1109.993286
3303.143835	0.097705	0.145566	1204.669556
3303.144740	0.097683	0.145566	1293.072754
3303.145628	0.097687	0.145566	1379.818604
3303.146535	0.097654	0.145566	1468.390625
3303.147457	0.097749	0.145566	1558.515259
3303.148361	0.097753	0.145566	1646.883667
3303.149257	0.097683	0.145566	1734.407715
3303.150197	0.097771	0.145566	1826.312500
3303.151099	0.097720	0.145566	1914.455688
3304.075721	0.946432	0.164374	410.751465
3304.076666	0.629996	0.164374	1006.098022
3304.077579	0.103539	0.164374	1100.628906
3304.078481	0.097507	0.164374	1188.580566
3304.079367	0.097632	0.164374	1275.082397
3304.080321	0.097742	0.164374	1368.328003
3304.081227	0.097738	0.164374	1456.878662
3304.082124	0.097679	0.164374	1544.497070
3304.083015	0.097709	0.164374	1631.555542
3304.083961	0.097705	0.164374	1723.984497
3304.084877	0.097650	0.164374	1813.432007
3304.085779	0.097665	0.164374	1901.525635
3305.211848	0.946886	0.143487	411.895416
3305.212741	0.667841	0.143487	1008.276978
3305.213712	0.103088	0.143487	1108.375732
3305.214621	0.097632	0.143487	1197.123047
3305.215516	0.097632	0.143487	1284.503540
3305.216440	0.097683	0.143487	1374.762695
3305.217351	0.097639	0.143487	1463.711914
3305.218251	0.097599	0.143487	1551.550903
3305.219148	0.097654	0.143487	1639.146362
3305.220076	0.097654	0.143487	1729.769043
3305.220989	0.097701	0.143487	1818.970459
3305.221892	0.097592	0.143487	1907.095581
3306.145233	0.962783	0.159612	429.401306
3306.146124	0.643403	0.159612	1002.673645
3306.147098	0.102898	0.159612	1102.896240
3306.148001	0.097551	0.159612	1190.984985
3306.148904	0.097639	0.159612	1279.153198
3306.149831	0.097595	0.159612	1369.624023
3306.150735	0.097727	0.159612	1457.969238
3306.151638	0.097679	0.159612	1546.173828
3306.152529	0.097650	0.159612	1633.180054
3306.153471	0.097760	0.159612	1725.270020
3306.154372	0.097665	0.159612	1813.265991
3306.155274	0.097690	0.159612	1901.382812
3307.277012	0.961663	0.142903	423.131561
3307.277944	0.627740	0.142903	1008.185669
3307.278843	0.104469	0.142903	1102.103271
3307.279780	0.097709	0.142903	1193.656372
3307.280691	0.097731	0.142903	1282.689087
3307.281593	0.097672	0.142903	1370.789307
3307.282483	0.097610	0.142903	1457.662109
3307.283435	0.097797	0.142903	1550.764526
3307.284343	0.097657	0.142903	1639.437500
3307.285239	0.097654	0.142903	1726.935303
3307.286152	0.097639	0.142903	1816.079834
3307.287064	0.097705	0.142903	1905.186890
3308.215237	0.949691	0.161353	412.165985
3308.216192	0.637346	0.161353	1020.831665
3308.217096	0.103524	0.161353	1114.417480
3308.217990	0.097588	0.161353	1201.661011
3308.218878	0.097606	0.161353	1288.335327
3308.219816	0.097720	0.161353	1379.996460
3308.220724	0.097764	0.161353	1468.765869
3308.221631	0.097687	0.161353	1557.367798
3308.222519	0.097668	0.161353	1644.097412
3308.223480	0.097756	0.161353	1738.041260
3308.224384	0.097676	0.161353	1826.340210
3308.225284	0.097731	0.161353	1914.297852
3309.344469	0.969478	0.144966	438.203857
3309.345373	0.640635	0.144966	1017.337708
3309.346313	0.104128	0.144966	1115.218384
3309.347218	0.097639	0.144966	1203.581787
3309.348116	0.097632	0.144966	1291.255127
3309.349000	0.097650	0.144966	1377.577881
3309.349954	0.097723	0.144966	1470.806030
3309.350856	0.097712	0.144966	1558.942627
3309.351756	0.097603	0.144966	1646.784912
3309.352683	0.097690	0.144966	1737.343994
3309.353600	0.097738	0.144966	1826.969727
3309.354508	0.097676	0.144966	1915.659302
3310.284248	0.968383	0.161244	438.677307
3310.285149	0.646805	0.161244	1021.449036
3310.286085	0.105161	0.161244	1119.879883
3310.286987	0.097709	0.161244	1208.013184
3310.287890	0.097716	0.161244	1296.250732
3310.288779	0.097628	0.161244	1383.042236
3310.289724	0.097771	0.161244	1475.435791
3310.290627	0.097672	0.161244	1563.633667
3310.291540	0.097614	0.161244	1652.754761
3310.292432	0.097676	0.161244	1739.881592
3310.293373	0.097771	0.161244	1831.884155
3310.294280	0.097639	0.161244	1920.442871
3311.412957	0.972568	0.141356	437.655762
3311.413878	0.629260	0.141356	1017.204468
3311.414778	0.104542	0.141356	1111.292480
3311.415680	0.097540	0.141356	1199.273804
3311.416626	0.097712	0.141356	1291.709717
3311.417540	0.097621	0.141356	1380.935181
3311.418437	0.097705	0.141356	1468.576660
3311.419366	0.097745	0.141356	1559.382080
3311.420272	0.097731	0.141356	1647.926147
3311.421174	0.097657	0.141356	1736.013184
3311.422064	0.097694	0.141356	1822.960937
3311.423003	0.097709	0.141356	1914.709473
3312.352505	0.984075	0.161046	480.228485
3312.353435	0.555147	0.161046	996.514771
3312.354335	0.102422	0.161046	1088.694458
3312.355225	0.097570	0.161046	1175.531372
3312.356173	0.097782	0.161046	1268.228638
3312.357076	0.097793	0.161046	1356.535645
3312.357980	0.097511	0.161046	1444.685547
3312.358870	0.097712	0.161046	1531.649536
3312.359802	0.097804	0.161046	1622.802856
3312.360710	0.097592	0.161046	1711.416016
3312.361601	0.097705	0.161046	1798.471191
3312.362532	0.097830	0.161046	1889.550537
3313.481164	0.952577	0.142573	417.228699
3313.482062	0.648069	0.142573	999.194519
3313.483022	0.103052	0.142573	1098.124268
3313.483931	0.097588	0.142573	1186.831665
3313.484825	0.097683	0.142573	1274.160400
3313.485767	0.097753	0.142573	1366.243408
3313.486669	0.097753	0.142573	1454.416382
3313.487563	0.097584	0.142573	1541.656738
3313.488455	0.097701	0.142573	1628.806396
3313.489388	0.097756	0.142573	1720.013062
3313.490297	0.097705	0.142573	1808.827026
3313.491201	0.097749	0.142573	1897.192139
3314.419926	0.962065	0.161111	429.081207
3314.420831	0.649127	0.161111	1016.541260
3314.421719	0.105817	0.161111	1110.506470
3314.422688	0.097742	0.161111	1205.218140
3314.423588	0.097756	0.161111	1293.198853
3314.424486	0.097771	0.161111	1380.997192
3314.425385	0.097716	0.161111	1468.843994
3314.426312	0.097822	0.161111	1559.525269
3314.427218	0.097705	0.161111	1648.046021
3314.428114	0.097657	0.161111	1735.547119
3314.429043	0.097767	0.161111	1826.372925
3314.429947	0.097775	0.161111	1914.761230
3315.550163	0.959839	0.143874	429.047974
3315.551065	0.654027	0.143874	1018.980408
3315.551982	0.105729	0.143874	1115.933716
3315.552922	0.097661	0.143874	1207.735229
3315.553833	0.097661	0.143874	1296.704468
3315.554731	0.097683	0.143874	1384.423950
3315.555670	0.097720	0.143874	1476.182739
3315.556574	0.097786	0.143874	1564.580933
3315.557476	0.097734	0.143874	1652.737305
3315.558364	0.097782	0.143874	1739.567749
3315.559293	0.097841	0.143874	1830.461670
3315.560204	0.097745	0.143874	1919.507690
3316.487380	0.957100	0.160817	422.080933
3316.488276	0.657030	0.160817	1010.779846
3316.489236	0.103502	0.160817	1110.141968
3316.490145	0.097617	0.160817	1198.875977
3316.491037	0.097709	0.160817	1286.032227
3316.491967	0.097720	0.160817	1376.911621
3316.492884	0.097742	0.160817	1466.540771
3316.493792	0.097731	0.160817	1555.280273
3316.494689	0.097698	0.160817	1642.915161
3316.495623	0.097716	0.160817	1734.182007
3316.496527	0.097701	0.160817	1822.504150
3316.497427	0.097712	0.160817	1910.445312
3317.619940	0.986880	0.143938	459.885986
3317.620852	0.609858	0.143938	1016.076843
3317.621775	0.104066	0.143938	1112.129883
3317.622704	0.097742	0.143938	1202.931885
3317.623613	0.097683	0.143938	1291.725830
3317.624514	0.097705	0.143938	1379.758057
3317.625459	0.097661	0.143938	1472.047852
3317.626369	0.097778	0.143938	1561.026123
3317.627266	0.097665	0.143938	1648.631470
3317.628152	0.097701	0.143938	1735.194946
3317.629094	0.097822	0.143938	1827.343506
3317.630005	0.097683	0.143938	1916.332764
3318.554320	0.945886	0.160406	408.622864
3318.555254	0.638031	0.160406	1004.543823
3318.556156	0.104355	0.160406	1098.672485
3318.557057	0.097701	0.160406	1186.701416
3318.557947	0.097742	0.160406	1273.691528
3318.558895	0.097771	0.160406	1366.378418
3318.559789	0.097657	0.160406	1453.684204
3318.560691	0.097764	0.160406	1541.867065
3318.561580	0.097650	0.160406	1628.678101
3318.562527	0.097753	0.160406	1721.249878
3318.563437	0.097731	0.160406	1810.184814
3318.564333	0.097749	0.160406	1897.767944
3319.688698	1.007322	0.146504	481.499786
3319.689622	0.572838	0.146504	1010.802246
3319.690523	0.102748	0.146504	1103.378052
3319.691410	0.097581	0.146504	1189.932007
3319.692360	0.097764	0.146504	1282.807495
3319.693262	0.097614	0.146504	1370.854858
3319.694159	0.097672	0.146504	1458.466797
3319.695106	0.097753	0.146504	1551.038574
3319.696008	0.097786	0.146504	1639.241211
3319.696901	0.097709	0.146504	1726.495117
3319.697791	0.097621	0.146504	1813.377686
3319.698725	0.097731	0.146504	1904.658203
3320.621001	0.952163	0.159367	418.951752
3320.622003	0.536656	0.159367	956.681519
3320.622906	0.101825	0.159367	1048.629395
3320.623803	0.097632	0.159367	1136.205200
3320.624688	0.097720	0.159367	1222.687134
3320.625626	0.097709	0.159367	1314.337891
3320.626534	0.097632	0.159367	1402.987549
3320.627434	0.097687	0.159367	1490.905640
3320.628363	0.097694	0.159367	1581.663452
3320.629268	0.097705	0.159367	1670.086548
3320.630173	0.097661	0.159367	1758.469849
3320.631061	0.097625	0.159367	1845.160400
3321.756374	0.966273	0.147511	434.822968
3321.757282	0.640968	0.147511	1016.821899
3321.758211	0.104905	0.147511	1114.278442
3321.759119	0.097654	0.147511	1202.948120
3321.760028	0.097694	0.147511	1291.752075
3321.760950	0.097577	0.147511	1381.718018
3321.761840	0.097657	0.147511	1468.633179
3321.762755	0.097566	0.147511	1557.906006
3321.763689	0.097592	0.147511	1649.056519
3321.764608	0.097756	0.147511	1738.894653
3321.765508	0.097606	0.147511	1826.740234
3321.766457	0.097617	0.147511	1919.378906
3322.687944	0.944044	0.156736	408.771118
3322.688875	0.650625	0.156736	1014.502991
3322.689800	0.103579	0.156736	1110.313721
3322.690691	0.097610	0.156736	1197.284058
3322.691576	0.097668	0.156736	1283.720703
3322.692518	0.097716	0.156736	1375.769287
3322.693417	0.097701	0.156736	1463.602905
3322.694330	0.097610	0.156736	1552.720703
3322.695223	0.097698	0.156736	1639.964844
3322.696177	0.097665	0.156736	1733.137085
3322.697081	0.097734	0.156736	1821.489014
3322.697972	0.097742	0.156736	1908.576904
3323.824588	0.954020	0.150033	420.722717
3323.825537	0.628363	0.150033	1017.039246
3323.826440	0.103403	0.150033	1110.412476
3323.827340	0.097588	0.150033	1198.241577
3323.828241	0.097720	0.150033	1286.287109
3323.829189	0.097756	0.150033	1378.960083
3323.830096	0.097676	0.150033	1467.552002
3323.830990	0.097672	0.150033	1554.870850
3323.831913	0.097738	0.150033	1645.083008
3323.832820	0.097661	0.150033	1733.661621
3323.833712	0.097712	0.150033	1820.821045
3323.834598	0.097636	0.150033	1907.326050
3324.757459	0.955803	0.156990	423.420807
3324.758429	0.595181	0.156990	1000.746094
3324.759343	0.102411	0.156990	1094.349609
3324.760243	0.097636	0.156990	1182.221558
3324.761134	0.097690	0.156990	1269.263672
3324.762077	0.097679	0.156990	1361.375366
3324.762984	0.097548	0.156990	1449.851074
3324.763889	0.097632	0.156990	1538.207886
3324.764783	0.097694	0.156990	1625.546387
3324.765729	0.097672	0.156990	1717.944214
3324.766637	0.097661	0.156990	1806.620483
3324.767529	0.097643	0.156990	1893.717896
3325.892575	0.970408	0.151846	437.653870
3325.893479	0.637753	0.151846	1014.182312
3325.894368	0.105271	0.151846	1107.768188
3325.895323	0.097665	0.151846	1201.038086
3325.896214	0.097592	0.151846	1287.992187
3325.897122	0.097687	0.151846	1376.691772
3325.898019	0.097720	0.151846	1464.346313
3325.898971	0.097764	0.151846	1557.417358
3325.899877	0.097727	0.151846	1645.958008
3325.900768	0.097690	0.151846	1733.000122
3325.901703	0.097778	0.151846	1824.422852
3325.902610	0.097668	0.151846	1913.008179
3326.824984	1.015474	0.151689	523.984375
3326.825906	0.531929	0.151689	1014.422607
3326.826804	0.101788	0.151689	1105.828491
3326.827696	0.097621	0.151689	1192.906250
3326.828651	0.097727	0.151689	1286.235596
3326.829554	0.097650	0.151689	1374.413696
3326.830445	0.097690	0.151689	1461.455811
3326.831367	0.097661	0.151689	1551.499390
3326.832283	0.097826	0.151689	1641.107910
3326.833183	0.097592	0.151689	1728.940308
3326.834074	0.097690	0.151689	1815.982422
3326.835021	0.097775	0.151689	1908.575073
3327.959765	0.966207	0.153582	430.928406
3327.960667	0.646835	0.153582	1014.373291
3327.961622	0.103301	0.153582	1113.025513
3327.962531	0.097679	0.153582	1201.816162
3327.963433	0.097687	0.153582	1289.929687
3327.964321	0.097657	0.153582	1376.649536
3327.965271	0.097738	0.153582	1469.500732
3327.966168	0.097654	0.153582	1557.096191
3327.967055	0.097709	0.153582	1643.763794
3327.967988	0.097800	0.153582	1735.011475
3327.968898	0.097771	0.153582	1823.983032
3327.969802	0.097701	0.153582	1912.305176
3328.893385	0.952903	0.148587	417.371429
3328.894282	0.648915	0.148587	999.447998
3328.895262	0.102484	0.148587	1099.882446
3328.896169	0.097562	0.148587	1188.371460
3328.897063	0.097646	0.148587	1275.667358
3328.898002	0.097767	0.148587	1367.470825
3328.898909	0.097749	0.148587	1456.129150
3328.899797	0.097731	0.148587	1542.914062
3328.900688	0.097650	0.148587	1629.920288
3328.901614	0.097793	0.148587	1720.476562
3328.902524	0.097661	0.148587	1809.348145
3328.903425	0.097668	0.148587	1897.347412
3330.026958	0.955016	0.156921	421.161987
3330.027930	0.596393	0.156921	1000.855774
3330.028843	0.102488	0.156921	1094.427124
3330.029735	0.097687	0.156921	1181.563721
3330.030628	0.097665	0.156921	1268.778320
3330.031570	0.097775	0.156921	1360.882080
3330.032476	0.097621	0.156921	1449.326538
3330.033365	0.097701	0.156921	1536.183105
3330.034340	0.097727	0.156921	1631.467041
3330.035240	0.097815	0.156921	1719.500488
3330.036141	0.097720	0.156921	1807.546021
3330.037031	0.097720	0.156921	1894.516602
3330.962395	0.963549	0.144724	432.633301
3330.963297	0.641917	0.144724	1011.641968
3330.964202	0.105399	0.144724	1107.028198
3330.965148	0.097625	0.144724	1199.380981
3330.966059	0.097690	0.144724	1288.376953
3330.966947	0.097694	0.144724	1375.129272
3330.967887	0.097639	0.144724	1466.910034
3330.968795	0.097694	0.144724	1555.616211
3330.969697	0.097712	0.144724	1643.752808
3330.970584	0.097676	0.144724	1730.391235
3330.971519	0.097797	0.144724	1821.831055
3330.972422	0.097709	0.144724	1910.062012
3332.093640	0.948138	0.157232	415.284637
3332.094604	0.578947	0.157232	973.389038
3332.095517	0.102715	0.157232	1067.167725
3332.096420	0.097657	0.157232	1155.352417
3332.097308	0.097764	0.157232	1242.166504
3332.098258	0.097764	0.157232	1335.041992
3332.099159	0.097625	0.157232	1423.001709
3332.100049	0.097581	0.157232	1509.848389
3332.100990	0.097646	0.157232	1601.733765
3332.101899	0.097636	0.157232	1690.484375
3332.102797	0.097683	0.157232	1778.203857
3332.103684	0.097654	0.157232	1864.822754
3333.032146	0.964226	0.143431	431.009064
3333.033048	0.652581	0.143431	1019.636719
3333.033936	0.105809	0.143431	1113.595459
3333.034901	0.097610	0.143431	1207.788940
3333.035810	0.097694	0.143431	1296.592896
3333.036729	0.097650	0.143431	1386.333374
3333.037618	0.097668	0.143431	1473.160645
3333.038563	0.097712	0.143431	1565.498901
3333.039459	0.097687	0.143431	1653.026245
3333.040346	0.097672	0.143431	1739.661377
3333.041280	0.097822	0.143431	1831.027344
3333.042182	0.097636	0.143431	1919.094604
3334.159321	0.957491	0.162307	433.743591
3334.160213	0.651434	0.162307	1014.823059
3334.161152	0.105381	0.162307	1113.775635
3334.162066	0.097650	0.162307	1203.027832
3334.162962	0.097690	0.162307	1290.558472
3334.163869	0.097731	0.162307	1379.200195
3334.164810	0.097654	0.162307	1471.092407
3334.165718	0.097584	0.162307	1559.698853
3334.166610	0.097738	0.162307	1646.881226
3334.167560	0.097727	0.162307	1739.721924
3334.168467	0.097628	0.162307	1828.270630
3334.169362	0.097723	0.162307	1915.733032
3335.102423	0.957730	0.140204	425.231903
3335.103316	0.658803	0.140204	1013.542603
3335.104273	0.103564	0.140204	1112.653809
3335.105187	0.097540	0.140204	1201.805664
3335.106081	0.097734	0.140204	1289.180176
3335.106972	0.097756	0.140204	1376.281128
3335.107919	0.097782	0.140204	1468.880615
3335.108826	0.097676	0.140204	1557.472534
3335.109717	0.097690	0.140204	1644.514648
3335.110643	0.097742	0.140204	1735.023437
3335.111548	0.097742	0.140204	1823.479736
3335.112443	0.097712	0.140204	1910.932373
3336.225740	0.949497	0.163419	414.930237
3336.226637	0.669833	0.163419	1015.770203
3336.227613	0.102799	0.163419	1116.102051
3336.228512	0.097625	0.163419	1203.866455
3336.229425	0.097705	0.163419	1293.071167
3336.230319	0.097705	0.163419	1380.419556
3336.231255	0.097723	0.163419	1471.888672
3336.232149	0.097738	0.163419	1559.266479
3336.233038	0.097727	0.163419	1646.145874
3336.233971	0.097771	0.163419	1737.366211
3336.234886	0.097676	0.163419	1826.739502
3336.235786	0.097738	0.163419	1914.703735
3337.171936	0.963512	0.140587	433.580414
3337.172837	0.643026	0.140587	1012.946899
3337.173774	0.104982	0.140587	1111.314697
3337.174693	0.097632	0.140587	1201.038330
3337.175591	0.097614	0.140587	1288.695312
3337.176483	0.097665	0.140587	1375.812256
3337.177434	0.097767	0.140587	1468.788940
3337.178340	0.097727	0.140587	1557.329590
3337.179234	0.097694	0.140587	1644.668091
3337.180118	0.097654	0.140587	1730.994019
3337.181052	0.097775	0.140587	1822.315552
3337.181950	0.097690	0.140587	1910.041504
3338.292939	0.951951	0.164358	417.906342
3338.293839	0.648977	0.164358	1001.985718
3338.294811	0.102762	0.164358	1101.870850
3338.295716	0.097570	0.164358	1190.171265
3338.296609	0.097548	0.164358	1277.281250
3338.297542	0.097694	0.164358	1368.429810
3338.298449	0.097657	0.164358	1457.005127
3338.299371	0.097665	0.164358	1547.052002
3338.300261	0.097679	0.164358	1633.986694
3338.301223	0.097690	0.164358	1727.964844
3338.302117	0.097588	0.164358	1815.208374
3338.303005	0.097643	0.164358	1901.915161
3339.240920	0.963757	0.139237	427.908264
3339.241818	0.652573	0.139237	1013.919006
3339.242719	0.105172	0.139237	1108.679077
3339.243665	0.097679	0.139237	1201.083862
3339.244582	0.097661	0.139237	1290.639160
3339.245486	0.097676	0.139237	1378.938110
3339.246375	0.097687	0.139237	1465.781616
3339.247326	0.097698	0.139237	1558.692139
3339.248234	0.097665	0.139237	1647.371826
3339.249127	0.097603	0.139237	1734.530884
3339.250043	0.097731	0.139237	1824.052246
3339.250969	0.097716	0.139237	1914.537354
3340.360663	0.962527	0.163536	424.474304
3340.361574	0.647128	0.163536	1014.007629
3340.362462	0.105311	0.163536	1107.524048
3340.363404	0.097661	0.163536	1199.520874
3340.364325	0.097727	0.163536	1289.527466
3340.365227	0.097584	0.163536	1377.548462
3340.366114	0.097661	0.163536	1464.173828
3340.367064	0.097727	0.163536	1557.014526
3340.367972	0.097690	0.163536	1645.717407
3340.368868	0.097573	0.163536	1733.143066
3340.369755	0.097778	0.163536	1819.872437
3340.370701	0.097778	0.163536	1912.370728
3341.309140	0.954525	0.138278	419.036560
3341.310095	0.594412	0.138278	986.699646
3341.311004	0.103414	0.138278	1080.703247
3341.311900	0.097566	0.138278	1168.122314
3341.312834	0.097617	0.138278	1259.296753
3341.313754	0.097705	0.138278	1349.185425
3341.314652	0.097555	0.138278	1436.789795
3341.315551	0.097559	0.138278	1524.494995
3341.316476	0.097694	0.138278	1614.862061
3341.317387	0.097657	0.138278	1703.828003
3341.318291	0.097595	0.138278	1792.054077
3341.319177	0.097599	0.138278	1878.526733
3342.428873	0.946509	0.163584	411.731323
3342.429823	0.640503	0.163584	1020.209106
3342.430730	0.103528	0.163584	1114.108887
3342.431627	0.097599	0.163584	1201.655029
3342.432519	0.097661	0.163584	1288.768799
3342.433470	0.097819	0.163584	1381.794312
3342.434380	0.097731	0.163584	1470.729248
3342.435274	0.097636	0.163584	1558.015381
3342.436197	0.097676	0.163584	1648.170166
3342.437099	0.097742	0.163584	1736.333130
3342.437996	0.097701	0.163584	1823.971313
3342.438883	0.097687	0.163584	1910.619507
3343.376609	0.971748	0.140039	439.230133
3343.377531	0.617772	0.140039	1008.816162
3343.378425	0.104037	0.140039	1101.825073
3343.379364	0.097654	0.140039	1193.521973
3343.380267	0.097698	0.140039	1281.743042
3343.381172	0.097599	0.140039	1370.070068
3343.382060	0.097603	0.140039	1456.741089
3343.383011	0.097712	0.140039	1549.665527
3343.383910	0.097657	0.140039	1637.459595
3343.384813	0.097599	0.140039	1725.591431
3343.385701	0.097687	0.140039	1812.337280
3343.386651	0.097749	0.140039	1905.198853
3344.498124	0.949563	0.161836	414.959045
3344.499022	0.652570	0.161836	1000.966553
3344.499998	0.102737	0.161836	1101.237671
3344.500910	0.097566	0.161836	1190.217773
3344.501807	0.097661	0.161836	1277.819824
3344.502748	0.097782	0.161836	1369.832642
3344.503647	0.097745	0.161836	1457.705688
3344.504546	0.097705	0.161836	1545.542603
3344.505433	0.097628	0.161836	1632.138794
3344.506360	0.097778	0.161836	1722.779297
3344.507274	0.097734	0.161836	1812.108521
3344.508171	0.097599	0.161836	1899.654663
3345.443547	0.964014	0.141038	429.950073
3345.444450	0.650867	0.141038	1017.682678
3345.445332	0.106029	0.141038	1111.200317
3345.446277	0.097683	0.141038	1203.510864
3345.447187	0.097731	0.141038	1292.445801
3345.448088	0.097646	0.141038	1380.425293
3345.449002	0.097650	0.141038	1469.677490
3345.449925	0.097859	0.141038	1560.001221
3345.450834	0.097727	0.141038	1648.835083
3345.451727	0.097712	0.141038	1736.092285
3345.452664	0.097778	0.141038	1827.710571
3345.453565	0.097734	0.141038	1915.769287
3346.567399	0.978739	0.160370	450.219940
3346.568295	0.633915	0.160370	1018.207520
3346.569247	0.103608	0.160370	1116.842773
3346.570156	0.097632	0.160370	1205.590088
3346.571060	0.097621	0.160370	1293.839355
3346.571950	0.097606	0.160370	1380.708862
3346.572903	0.097705	0.160370	1473.821777
3346.573808	0.097643	0.160370	1562.188477
3346.574704	0.097690	0.160370	1649.719116
3346.575636	0.097668	0.160370	1740.746094
3346.576542	0.097793	0.160370	1829.346558
3346.577454	0.097672	0.160370	1918.423584
3347.510240	0.970708	0.142822	438.760010
3347.511146	0.633171	0.142822	1012.413269
3347.512047	0.104886	0.142822	1106.916016
3347.512987	0.097632	0.142822	1198.689941
3347.513897	0.097625	0.142822	1287.528198
3347.514793	0.097701	0.142822	1375.068604
3347.515721	0.097701	0.142822	1465.735474
3347.516622	0.097749	0.142822	1553.807373
3347.517521	0.097625	0.142822	1641.571777
3347.518409	0.097654	0.142822	1728.288330
3347.519368	0.097738	0.142822	1822.019043
3347.520265	0.097705	0.142822	1909.660522
3348.637393	0.951024	0.158762	420.352692
3348.638285	0.665226	0.158762	1013.734131
3348.639229	0.103802	0.158762	1111.723633
3348.640144	0.097654	0.158762	1201.076904
3348.641051	0.097676	0.158762	1289.668823
3348.641956	0.097665	0.158762	1378.055420
3348.642898	0.097800	0.158762	1470.183350
3348.643807	0.097720	0.158762	1559.010620
3348.644708	0.097650	0.158762	1646.993408
3348.645645	0.097738	0.158762	1738.573975
3348.646546	0.097734	0.158762	1826.632690
3348.647446	0.097676	0.158762	1914.540894
3349.576653	0.960055	0.145908	424.344269
3349.577559	0.654741	0.145908	1017.539795
3349.578446	0.106088	0.145908	1111.639526
3349.579403	0.097727	0.145908	1205.164307
3349.580313	0.097595	0.145908	1293.975952
3349.581204	0.097668	0.145908	1380.998535
3349.582139	0.097786	0.145908	1472.428101
3349.583046	0.097837	0.145908	1561.166138
3349.583950	0.097672	0.145908	1649.461670
3349.584839	0.097712	0.145908	1736.328003
3349.585788	0.097679	0.145908	1829.025757
3349.586692	0.097734	0.145908	1917.377686
3350.706902	0.967046	0.156736	433.236572
3350.707803	0.646637	0.156736	1015.856445
3350.708747	0.104777	0.156736	1114.765625
3350.709662	0.097690	0.156736	1204.152344
3350.710564	0.097723	0.156736	1292.298828
3350.711451	0.097643	0.156736	1378.907959
3350.712397	0.097797	0.156736	1471.423584
3350.713308	0.097698	0.156736	1560.426270
3350.714198	0.097679	0.156736	1647.360962
3350.715099	0.097705	0.156736	1735.393188
3350.716031	0.097771	0.156736	1826.515747
3350.716945	0.097712	0.156736	1915.824829
3351.643358	0.974421	0.147942	441.412872
3351.644264	0.631044	0.147942	1013.138428
3351.645200	0.104648	0.147942	1111.089355
3351.646110	0.097606	0.147942	1199.911011
3351.647010	0.097610	0.147942	1287.759888
3351.647894	0.097679	0.147942	1374.108521
3351.648836	0.097731	0.147942	1466.170898
3351.649747	0.097760	0.147942	1555.230225
3351.650656	0.097643	0.147942	1643.987549
3351.651545	0.097679	0.147942	1730.824585
3351.652492	0.097782	0.147942	1823.424072
3351.653408	0.097723	0.147942	1912.938721
3352.776400	0.958894	0.153840	423.831177
3352.777305	0.653218	0.153840	1014.993225
3352.778209	0.105879	0.153840	1110.707764
3352.779152	0.097628	0.153840	1202.771118
3352.780060	0.097654	0.153840	1291.440796
3352.780951	0.097665	0.153840	1378.460083
3352.781882	0.097753	0.153840	1469.467773
3352.782790	0.097749	0.153840	1558.223877
3352.783694	0.097771	0.153840	1646.608887
3352.784585	0.097723	0.153840	1733.680420
3352.785526	0.097764	0.153840	1825.676025
3352.786436	0.097749	0.153840	1914.627686
3353.710544	0.956122	0.151520	418.781342
3353.711444	0.645740	0.151520	999.947144
3353.712400	0.103173	0.151520	1098.580200
3353.713309	0.097471	0.151520	1187.181030
3353.714206	0.097672	0.151520	1274.792969
3353.715133	0.097767	0.151520	1365.423340
3353.716033	0.097709	0.151520	1453.361206
3353.716932	0.097636	0.151520	1541.135498
3353.717819	0.097665	0.151520	1627.764160
3353.718772	0.097639	0.151520	1720.814331
3353.719670	0.097559	0.151520	1808.421997
3353.720571	0.097595	0.151520	1896.355225
3354.845170	0.998793	0.151955	476.424164
3354.846096	0.577104	0.151955	1010.822876
3354.846998	0.103022	0.151955	1103.749146
3354.847886	0.097610	0.151955	1190.426758
3354.848844	0.097672	0.151955	1283.996704
3354.849754	0.097643	0.151955	1372.851685
3354.850642	0.097628	0.151955	1459.545532
3354.851579	0.097676	0.151955	1551.067749
3354.852487	0.097734	0.151955	1639.810547
3354.853390	0.097668	0.151955	1728.005127
3354.854281	0.097606	0.151955	1814.972290
3354.855235	0.097687	0.151955	1908.165527
3355.778525	0.967225	0.153663	431.382507
3355.779448	0.619761	0.153663	1003.421692
3355.780356	0.103839	0.153663	1097.707642
3355.781268	0.097606	0.153663	1186.724487
3355.782205	0.097694	0.153663	1278.263794
3355.783119	0.097584	0.153663	1367.455811
3355.784016	0.097603	0.153663	1455.005249
3355.784947	0.097716	0.153663	1545.978882
3355.785846	0.097694	0.153663	1633.805908
3355.786746	0.097606	0.153663	1721.651489
3355.787634	0.097679	0.153663	1808.390869
3355.788567	0.097734	0.153663	1899.577026
3356.913611	0.949589	0.150134	415.919800
3356.914545	0.642052	0.150134	1015.596375
3356.915451	0.103649	0.150134	1109.502075
3356.916363	0.097551	0.150134	1198.468872
3356.917258	0.097592	0.150134	1285.813354
3356.918194	0.097646	0.150134	1377.210449
3356.919098	0.097559	0.150134	1465.403442
3356.920001	0.097657	0.150134	1553.588135
3356.920888	0.097632	0.150134	1640.187622
3356.921828	0.097738	0.150134	1732.061401
3356.922743	0.097606	0.150134	1821.371094
3356.923638	0.097614	0.150134	1908.735229
3357.846736	0.957257	0.154585	422.150391
3357.847627	0.651998	0.154585	1003.080872
3357.848580	0.103868	0.154585	1102.067505
3357.849489	0.097533	0.154585	1190.724976
3357.850380	0.097584	0.154585	1277.672485
3357.851299	0.097723	0.154585	1367.480225
3357.852205	0.097727	0.154585	1456.020996
3357.853110	0.097628	0.154585	1544.374512
3357.853998	0.097632	0.154585	1631.071533
3357.854943	0.097709	0.154585	1723.406250
3357.855843	0.097654	0.154585	1811.294678
3357.856748	0.097625	0.154585	1899.644897
3358.981599	0.969895	0.149086	433.543060
3358.982524	0.621526	0.149086	1008.454468
3358.983415	0.104315	0.149086	1101.399292
3358.984333	0.097548	0.149086	1190.947998
3358.985242	0.097771	0.149086	1279.821777
3358.986153	0.097665	0.149086	1368.794434
3358.987052	0.097745	0.149086	1456.667480
3358.987980	0.097804	0.149086	1547.429565
3358.988887	0.097709	0.149086	1636.051392
3358.989794	0.097665	0.149086	1724.633301
3358.990682	0.097698	0.149086	1811.388916
3358.991627	0.097771	0.149086	1903.782471
3359.916239	0.950878	0.158565	419.337036
3359.917134	0.666709	0.158565	1016.041626
3359.918073	0.103978	0.158565	1113.677246
3359.918995	0.097639	0.158565	1203.700562
3359.919904	0.097661	0.158565	1292.474487
3359.920799	0.097701	0.158565	1379.917236
3359.921743	0.097687	0.158565	1472.133545
3359.922653	0.097621	0.158565	1560.968506
3359.923550	0.097559	0.158565	1648.478516
3359.924488	0.097698	0.158565	1740.119019
3359.925389	0.097687	0.158565	1828.134766
3359.926290	0.097577	0.158565	1916.051514
3361.049312	0.971624	0.148007	443.060333
3361.050213	0.638928	0.148007	1018.734619
3361.051156	0.103627	0.148007	1116.454590
3361.052070	0.097701	0.148007	1205.753662
3361.052977	0.097661	0.148007	1294.332275
3361.053863	0.097599	0.148007	1380.804932
3361.054811	0.097731	0.148007	1473.453613
3361.055723	0.097617	0.148007	1562.480469
3361.056625	0.097606	0.148007	1650.521240
3361.057544	0.097661	0.148007	1740.271851
3361.058447	0.097676	0.148007	1828.473145
3361.059355	0.097555	0.148007	1917.052979
3361.985771	0.991597	0.157405	469.025208
3361.986679	0.606346	0.157405	1019.587769
3361.987615	0.103378	0.157405	1116.349243
3361.988520	0.097584	0.157405	1204.662964
3361.989423	0.097614	0.157405	1292.807983
3361.990313	0.097621	0.157405	1379.690552
3361.991263	0.097661	0.157405	1472.468628
3361.992181	0.097614	0.157405	1562.077881
3361.993074	0.097599	0.157405	1649.233643
3361.993985	0.097588	0.157405	1738.136230
3361.994920	0.097683	0.157405	1829.469971
3361.995827	0.097643	0.157405	1918.031982
3363.116238	0.951995	0.147979	418.877655
3363.117137	0.650973	0.147979	1004.102295
3363.118072	0.103938	0.147979	1101.284302
3363.118991	0.097614	0.147979	1190.991089
3363.119885	0.097639	0.147979	1278.280518
3363.120817	0.097661	0.147979	1369.300659
3363.121726	0.097705	0.147979	1458.114624
3363.122630	0.097581	0.147979	1546.327393
3363.123519	0.097606	0.147979	1633.099365
3363.124466	0.097701	0.147979	1725.622559
3363.125365	0.097679	0.147979	1813.436401
3363.126262	0.097588	0.147979	1900.972778
3364.054999	0.960582	0.160370	428.419678
3364.055900	0.648204	0.160370	1012.451843
3364.056790	0.105699	0.160370	1106.524414
3364.057737	0.097654	0.160370	1199.002563
3364.058650	0.097687	0.160370	1288.190552
3364.059551	0.097654	0.160370	1376.176636
3364.060467	0.097650	0.160370	1465.624146
3364.061388	0.097679	0.160370	1555.586914
3364.062293	0.097646	0.160370	1643.957031
3364.063184	0.097610	0.160370	1730.927368
3364.064119	0.097731	0.160370	1822.305542
3364.065019	0.097639	0.160370	1910.180786
3365.184004	1.002774	0.146669	496.372894
3365.184923	0.557340	0.146669	1008.568481
3365.185827	0.102502	0.146669	1101.230713
3365.186714	0.097621	0.146669	1187.820435
3365.187671	0.097782	0.146669	1281.397827
3365.188584	0.097701	0.146669	1370.599243
3365.189484	0.097694	0.146669	1458.523926
3365.190401	0.097723	0.146669	1548.136230
3365.191316	0.097753	0.146669	1637.579956
3365.192228	0.097690	0.146669	1726.673584
3365.193118	0.097712	0.146669	1813.637573
3365.194042	0.097694	0.146669	1903.906860
3366.124040	1.021223	0.159709	508.569153
3366.124967	0.551997	0.159709	1020.270447
3366.125863	0.102462	0.159709	1112.076538
3366.126744	0.097570	0.159709	1198.035400
3366.127679	0.097734	0.159709	1289.416992
3366.128593	0.097650	0.159709	1378.669189
3366.129494	0.097661	0.159709	1466.661865
3366.130415	0.097723	0.159709	1556.665161
3366.131304	0.097643	0.159709	1643.469604
3366.132252	0.097665	0.159709	1736.055786
3366.133177	0.097683	0.159709	1826.412598
3366.134067	0.097720	0.159709	1913.383179
3367.251459	1.019246	0.145880	504.526581
3367.252379	0.552045	0.145880	1012.407715
3367.253307	0.101481	0.145880	1106.581787
3367.254196	0.097610	0.145880	1193.356934
3367.255148	0.097657	0.145880	1286.326904
3367.256040	0.097548	0.145880	1373.339355
3367.256933	0.097701	0.145880	1460.586670
3367.257882	0.097727	0.145880	1553.329590
3367.258776	0.097603	0.145880	1640.586304
3367.259696	0.097526	0.145880	1730.309937
3367.260589	0.097646	0.145880	1817.508301
3367.261527	0.097636	0.145880	1909.090454
3368.192211	0.954686	0.158847	424.835388
3368.193108	0.658770	0.158847	1015.751648
3368.194057	0.105385	0.158847	1115.761597
3368.194964	0.097555	0.158847	1204.243896
3368.195866	0.097625	0.158847	1292.301270
3368.196753	0.097614	0.158847	1378.884521
3368.197693	0.097636	0.158847	1470.661865
3368.198606	0.097621	0.158847	1559.789673
3368.199509	0.097650	0.158847	1647.967773
3368.200399	0.097621	0.158847	1734.850342
3368.201351	0.097709	0.158847	1827.869019
3368.202257	0.097690	0.158847	1916.376587
3369.319622	0.945919	0.145352	409.583008
3369.320568	0.627634	0.145352	1003.325012
3369.321486	0.103132	0.145352	1098.000488
3369.322388	0.097515	0.145352	1185.958740
3369.323308	0.097643	0.145352	1275.790161
3369.324241	0.097701	0.145352	1366.945557
3369.325151	0.097617	0.145352	1455.777222
3369.326045	0.097603	0.145352	1543.033936
3369.326985	0.097628	0.145352	1634.804443
3369.327888	0.097646	0.145352	1722.979248
3369.328784	0.097621	0.145352	1810.447510
3369.329671	0.097668	0.145352	1897.079468
3370.260445	0.969463	0.160974	433.349945
3370.261367	0.624628	0.160974	1009.256714
3370.262266	0.104187	0.160974	1102.920898
3370.263179	0.097606	0.160974	1192.035400
3370.264104	0.097709	0.160974	1282.416016
3370.265010	0.097636	0.160974	1370.873779
3370.265902	0.097588	0.160974	1457.922119
3370.266855	0.097775	0.160974	1551.101318
3370.267761	0.097734	0.160974	1639.648682
3370.268663	0.097650	0.160974	1727.729126
3370.269549	0.097690	0.160974	1814.282837
3370.270477	0.097822	0.160974	1905.061890
3371.388116	0.964724	0.144981	434.125854
3371.389021	0.641558	0.144981	1014.735535
3371.389971	0.104572	0.144981	1114.078491
3371.390880	0.097621	0.144981	1202.815796
3371.391777	0.097654	0.144981	1290.411255
3371.392667	0.097654	0.144981	1377.323120
3371.393602	0.097716	0.144981	1468.687622
3371.394500	0.097592	0.144981	1556.324829
3371.395405	0.097603	0.144981	1644.655151
3371.396298	0.097701	0.144981	1731.902466
3371.397249	0.097738	0.144981	1824.851318
3371.398158	0.097654	0.144981	1913.618652
3372.328156	0.968481	0.161671	434.848145
3372.329058	0.643022	0.161671	1014.854370
3372.330011	0.103788	0.161671	1113.764160
3372.330932	0.097581	0.161671	1203.635864
3372.331843	0.097679	0.161671	1292.621826
3372.332730	0.097621	0.161671	1379.211548
3372.333684	0.097767	0.161671	1472.481567
3372.334593	0.097661	0.161671	1561.255493
3372.335482	0.097632	0.161671	1648.050171
3372.336415	0.097709	0.161671	1739.212402
3372.337318	0.097628	0.161671	1827.370605
3372.338225	0.097632	0.161671	1915.922729
3373.457615	0.960352	0.147866	426.396088
3373.458519	0.653540	0.147866	1017.196289
3373.459404	0.105813	0.147866	1110.840820
3373.460354	0.097657	0.147866	1203.615479
3373.461262	0.097614	0.147866	1292.248535
3373.462160	0.097657	0.147866	1379.944946
3373.463092	0.097731	0.147866	1471.030029
3373.464003	0.097672	0.147866	1560.009277
3373.464910	0.097654	0.147866	1648.581299
3373.465800	0.097603	0.147866	1735.447510
3373.466756	0.097764	0.147866	1828.909546
3373.467656	0.097599	0.147866	1916.748535
3374.394832	0.955027	0.159479	423.076874
3374.395731	0.654767	0.159479	1011.712280
3374.396686	0.103209	0.159479	1110.277100
3374.397588	0.097562	0.159479	1198.278320
3374.398486	0.097665	0.159479	1285.981323
3374.399386	0.097676	0.159479	1373.889526
3374.400308	0.097848	0.159479	1464.105347
3374.401219	0.097705	0.159479	1553.114624
3374.402117	0.097694	0.159479	1640.843872
3374.403042	0.097654	0.159479	1731.173584
3374.403955	0.097625	0.159479	1820.304810
3374.404856	0.097716	0.159479	1908.346924
3375.526864	0.956660	0.145666	421.887146
3375.527789	0.632399	0.145666	1006.855896
3375.528686	0.104736	0.145666	1100.804443
3375.529620	0.097599	0.145666	1191.961792
3375.530519	0.097687	0.145666	1279.782227
3375.531421	0.097665	0.145666	1367.875854
3375.532310	0.097643	0.145666	1454.680298
3375.533243	0.097687	0.145666	1545.822021
3375.534149	0.097701	0.145666	1634.339478
3375.535046	0.097628	0.145666	1721.911987
3375.535959	0.097672	0.145666	1811.086670
3375.536897	0.097687	0.145666	1902.716797
3376.461017	0.969748	0.160712	438.326324
3376.461918	0.645286	0.160712	1019.728638
3376.462863	0.104637	0.160712	1118.611084
3376.463775	0.097716	0.160712	1207.728149
3376.464679	0.097592	0.160712	1295.950928
3376.465566	0.097646	0.160712	1382.563354
3376.466508	0.097775	0.160712	1474.667114
3376.467417	0.097654	0.160712	1563.434448
3376.468317	0.097723	0.160712	1651.385498
3376.469237	0.097742	0.160712	1741.307861
3376.470152	0.097657	0.160712	1830.664429
3376.471063	0.097599	0.160712	1919.577026
3377.595896	0.970565	0.148204	471.694702
3377.596826	0.559947	0.148204	992.445862
3377.597726	0.102590	0.148204	1084.777100
3377.598617	0.097537	0.148204	1171.682251
3377.599571	0.097705	0.148204	1264.892944
3377.600472	0.097764	0.148204	1352.978027
3377.601367	0.097698	0.148204	1440.417480
3377.602255	0.097646	0.148204	1527.127563
3377.603183	0.097712	0.148204	1617.804687
3377.604097	0.097606	0.148204	1707.016724
3377.604995	0.097657	0.148204	1794.713135
3377.605932	0.097592	0.148204	1886.156372
3378.528454	0.951540	0.159653	413.920105
3378.529415	0.596495	0.159653	987.152161
3378.530316	0.103374	0.159653	1080.292114
3378.531214	0.097522	0.159653	1167.866821
3378.532101	0.097639	0.159653	1254.472778
3378.533045	0.097731	0.159653	1346.730591
3378.533948	0.097603	0.159653	1434.865723
3378.534846	0.097621	0.159653	1522.529297
3378.535780	0.097709	0.159653	1613.789307
3378.536694	0.097745	0.159653	1703.128540
3378.537603	0.097679	0.159653	1791.919189
3378.538503	0.097592	0.159653	1879.751587
3379.664348	0.965197	0.148442	434.338440
3379.665242	0.645436	0.148442	1011.357971
3379.666200	0.103096	0.148442	1110.123657
3379.667113	0.097555	0.148442	1199.191284
3379.668005	0.097701	0.148442	1286.340942
3379.668921	0.097559	0.148442	1375.704590
3379.669845	0.097738	0.148442	1466.014526
3379.670760	0.097592	0.148442	1555.310791
3379.671655	0.097639	0.148442	1642.697876
3379.672581	0.097683	0.148442	1733.152466
3379.673495	0.097668	0.148442	1822.421387
3379.674402	0.097625	0.148442	1910.966797
3380.595146	0.956023	0.157377	419.694092
3380.596120	0.565258	0.157377	970.254944
3380.597040	0.102532	0.157377	1064.584106
3380.597931	0.097595	0.157377	1151.541504
3380.598855	0.097738	0.157377	1241.851440
3380.599760	0.097632	0.157377	1330.208252
3380.600671	0.097665	0.157377	1419.180908
3380.601563	0.097705	0.157377	1506.333862
3380.602482	0.097614	0.157377	1596.040649
3380.603399	0.097698	0.157377	1685.629517
3380.604303	0.097584	0.157377	1773.845703
3380.605190	0.097646	0.157377	1860.458130
3381.732589	0.993483	0.150609	463.956390
3381.733515	0.585326	0.150609	1005.968140
3381.734420	0.102883	0.150609	1099.077515
3381.735322	0.097584	0.150609	1187.098511
3381.736261	0.097712	0.150609	1278.850464
3381.737170	0.097537	0.150609	1367.511230
3381.738065	0.097599	0.150609	1454.862183
3381.738996	0.097676	0.150609	1545.798340
3381.739894	0.097661	0.150609	1633.498047
3381.740787	0.097555	0.150609	1720.614624
3381.741677	0.097665	0.150609	1807.536255
3381.742613	0.097712	0.150609	1898.995117
3382.663131	0.973480	0.154134	438.066071
3382.664037	0.638232	0.154134	1016.304687
3382.664923	0.105359	0.154134	1109.652710
3382.665886	0.097690	0.154134	1203.728638
3382.666802	0.097782	0.154134	1293.296875
3382.667699	0.097654	0.154134	1380.892334
3382.668619	0.097665	0.154134	1470.743896
3382.669531	0.097760	0.154134	1559.901001
3382.670439	0.097606	0.154134	1648.527466
3382.671338	0.097632	0.154134	1736.298462
3382.672272	0.097698	0.154134	1827.548218
3382.673179	0.097672	0.154134	1916.136841
3383.800319	1.014251	0.153763	493.940002
3383.801229	0.577130	0.153763	1019.128357
3383.802165	0.102433	0.153763	1115.005493
3383.803072	0.097573	0.153763	1203.504395
3383.803976	0.097727	0.153763	1291.849609
3383.804866	0.097709	0.153763	1378.810425
3383.805802	0.097764	0.153763	1470.317261
3383.806713	0.097749	0.153763	1559.366577
3383.807605	0.097592	0.153763	1646.418213
3383.808522	0.097701	0.153763	1736.010376
3383.809440	0.097738	0.153763	1825.733887
3383.810360	0.097610	0.153763	1915.534912
3384.731903	0.980068	0.153594	482.193604
3384.732826	0.559816	0.153594	998.903442
3384.733727	0.102561	0.153594	1091.310913
3384.734614	0.097577	0.153594	1177.861572
3384.735567	0.097698	0.153594	1270.967529
3384.736469	0.097705	0.153594	1359.097534
3384.737365	0.097690	0.153594	1446.628174
3384.738255	0.097661	0.153594	1533.546631
3384.739204	0.097756	0.153594	1626.317383
3384.740112	0.097654	0.153594	1714.987061
3384.741012	0.097588	0.153594	1802.816162
3384.741942	0.097709	0.153594	1893.685303
3385.866956	0.948138	0.156478	416.232788
3385.867849	0.670499	0.156478	1014.988647
3385.868811	0.103312	0.156478	1114.374512
3385.869708	0.097610	0.156478	1201.930542
3385.870607	0.097632	0.156478	1289.701538
3385.871494	0.097716	0.156478	1376.375732
3385.872446	0.097778	0.156478	1469.460693
3385.873341	0.097712	0.156478	1556.913330
3385.874236	0.097742	0.156478	1644.392090
3385.875174	0.097698	0.156478	1736.032593
3385.876076	0.097789	0.156478	1824.238525
3385.876977	0.097712	0.156478	1912.277344
3386.801102	0.957019	0.150520	423.959442
3386.802064	0.576409	0.150520	978.464600
3386.802971	0.102839	0.150520	1071.739868
3386.803868	0.097566	0.150520	1159.256470
3386.804757	0.097734	0.150520	1246.142334
3386.805718	0.097775	0.150520	1340.103760
3386.806631	0.097694	0.150520	1429.298462
3386.807523	0.097709	0.150520	1516.454712
3386.808454	0.097716	0.150520	1607.428345
3386.809359	0.097756	0.150520	1695.897827
3386.810257	0.097672	0.150520	1783.607422
3386.811144	0.097698	0.150520	1870.265381
3387.933394	0.949925	0.158404	417.967224
3387.934287	0.669236	0.158404	1015.594849
3387.935247	0.103477	0.158404	1114.932373
3387.936157	0.097672	0.158404	1203.813965
3387.937056	0.097668	0.158404	1291.617920
3387.937944	0.097636	0.158404	1378.318237
3387.938897	0.097756	0.158404	1471.479980
3387.939804	0.097657	0.158404	1560.055298
3387.940701	0.097709	0.158404	1647.700073
3387.941637	0.097789	0.158404	1739.230835
3387.942539	0.097819	0.158404	1827.463257
3387.943436	0.097690	0.158404	1915.091553
3388.870855	0.945754	0.147761	411.403137
3388.871827	0.575750	0.147761	971.031677
3388.872733	0.102836	0.147761	1064.200806
3388.873637	0.097577	0.147761	1152.410278
3388.874526	0.097705	0.147761	1239.270142
3388.875480	0.097804	0.147761	1332.575073
3388.876383	0.097679	0.147761	1420.779663
3388.877282	0.097661	0.147761	1508.577026
3388.878222	0.097701	0.147761	1600.416382
3388.879129	0.097723	0.147761	1689.051514
3388.880023	0.097595	0.147761	1776.301636
3388.880908	0.097672	0.147761	1862.741455
3390.000582	0.945674	0.160088	410.422455
3390.001525	0.618593	0.160088	993.755127
3390.002436	0.103557	0.160088	1088.095703
3390.003341	0.097679	0.160088	1176.495605
3390.004232	0.097661	0.160088	1263.511719
3390.005177	0.097833	0.160088	1355.964111
3390.006080	0.097668	0.160088	1444.158691
3390.006968	0.097646	0.160088	1530.868774
3390.007888	0.097665	0.160088	1620.720337
3390.008803	0.097720	0.160088	1710.133911
3390.009713	0.097716	0.160088	1799.055542
3390.010612	0.097745	0.160088	1886.928589
3390.940359	0.949157	0.145074	412.883087
3390.941303	0.631128	0.145074	1008.667847
3390.942208	0.103597	0.145074	1102.423462
3390.943113	0.097577	0.145074	1190.730591
3390.944000	0.097661	0.145074	1277.355957
3390.944956	0.097753	0.145074	1370.807495
3390.945866	0.097595	0.145074	1459.619141
3390.946760	0.097698	0.145074	1546.960937
3390.947649	0.097687	0.145074	1633.804443
3390.948601	0.097778	0.145074	1726.889404
3390.949510	0.097720	0.145074	1815.716675
3390.950408	0.097639	0.145074	1903.396606
3392.067015	0.949409	0.161272	415.841248
3392.067980	0.599513	0.161272	994.371216
3392.068889	0.102836	0.161272	1087.848877
3392.069792	0.097646	0.161272	1176.023682
3392.070676	0.097745	0.161272	1262.430542
3392.071611	0.097756	0.161272	1353.832764
3392.072527	0.097687	0.161272	1443.313843
3392.073425	0.097625	0.161272	1530.980713
3392.074336	0.097672	0.161272	1619.959961
3392.075265	0.097778	0.161272	1710.796021
3392.076168	0.097698	0.161272	1799.017090
3392.077061	0.097643	0.161272	1886.212158
