time (s)	coil I (A)	last det (V)	int current (uC)
5506.318296	0.961820	0.077455	430.895416
5506.319195	1.427651	0.077455	1714.353882
5506.320089	1.434126	0.077455	2996.462402
5506.321075	1.399790	0.077455	4376.655273
5506.321981	1.366278	0.077455	5614.502930
5506.322882	1.024226	0.077455	6537.330566
5506.323805	0.148308	0.077455	6674.218750
5506.324726	0.097577	0.077455	6764.086914
5506.325620	0.097705	0.077455	6851.435059
5506.326510	0.097668	0.077455	6938.359863
5506.327446	0.097720	0.077455	7029.825684
5506.328353	0.097712	0.077455	7118.450684
5506.329249	0.097749	0.077455	7206.033691
5506.330175	0.097701	0.077455	7296.505371
5506.331082	0.097698	0.077455	7385.117187
5506.331981	0.097709	0.077455	7472.957520
5507.335629	0.948084	0.064725	415.260590
5507.336565	1.429721	0.064725	1753.479004
5507.337490	1.432489	0.064725	3078.531250
5507.338398	1.400585	0.064725	4350.262207
5507.339290	1.367025	0.064725	5569.648437
5507.340255	0.991827	0.064725	6526.761719
5507.341163	0.139200	0.064725	6653.155762
5507.342059	0.097533	0.064725	6740.545410
5507.343001	0.097742	0.064725	6832.618164
5507.343901	0.097738	0.064725	6920.582520
5507.344802	0.097690	0.064725	7008.601562
5507.345691	0.097636	0.064725	7095.399414
5507.346614	0.097716	0.064725	7185.591309
5507.347525	0.097775	0.064725	7274.664062
5507.348429	0.097698	0.064725	7362.982910
5507.349321	0.097712	0.064725	7450.142578
5508.387815	0.977084	0.068206	444.573090
5508.388715	1.428373	0.068206	1730.108643
5508.389611	1.433829	0.068206	3014.819824
5508.390557	1.401116	0.068206	4340.275391
5508.391457	1.367703	0.068206	5571.208008
5508.392353	1.056683	0.068206	6517.996094
5508.393291	0.154244	0.068206	6662.677246
5508.394205	0.097599	0.068206	6751.882812
5508.395105	0.097764	0.068206	6839.870117
5508.395992	0.097734	0.068206	6926.560547
5508.396952	0.097826	0.068206	7020.473633
5508.397861	0.097789	0.068206	7109.364258
5508.398759	0.097786	0.068206	7197.175781
5508.399644	0.097764	0.068206	7283.696777
5508.400585	0.097800	0.068206	7375.727051
5508.401484	0.097687	0.068206	7463.547363
5509.404614	0.947479	0.063380	412.153473
5509.405512	1.426304	0.063380	1692.974243
5509.406458	1.433024	0.063380	3048.614746
5509.407376	1.400643	0.063380	4334.405273
5509.408287	1.367318	0.063380	5580.032227
5509.409198	1.012452	0.063380	6502.376465
5509.410140	0.141064	0.063380	6635.259277
5509.411045	0.097573	0.063380	6723.562988
5509.411936	0.097749	0.063380	6810.657227
5509.412879	0.097723	0.063380	6902.810547
5509.413773	0.097797	0.063380	6990.240723
5509.414677	0.097701	0.063380	7078.562988
5509.415569	0.097679	0.063380	7165.692871
5509.416519	0.097734	0.063380	7258.540527
5509.417430	0.097712	0.063380	7347.556641
5509.418330	0.097698	0.063380	7435.484375
5510.457831	0.965662	0.069185	437.444702
5510.458730	1.427886	0.069185	1721.114014
5510.459626	1.433536	0.069185	3005.562500
5510.460591	1.399823	0.069185	4356.391602
5510.461504	1.365934	0.069185	5603.489258
5510.462426	1.000745	0.069185	6526.175781
5510.463340	0.141830	0.069185	6655.808105
5510.464288	0.097581	0.069185	6748.314453
5510.465193	0.097698	0.069185	6836.730957
5510.466087	0.097753	0.069185	6924.122070
5510.467018	0.097782	0.069185	7015.157227
5510.467930	0.097661	0.069185	7104.224121
5510.468853	0.097731	0.069185	7194.429687
5510.469744	0.097712	0.069185	7281.491211
5510.470705	0.097694	0.069185	7375.375000
5510.471598	0.097738	0.069185	7462.655273
5511.472075	0.953320	0.064214	418.507599
5511.473033	1.430903	0.064214	1789.312988
5511.473946	1.432251	0.064214	3096.958008
5511.474845	1.400299	0.064214	4355.827148
5511.475783	1.366106	0.064214	5637.234375
5511.476714	0.972264	0.064214	6542.412598
5511.477622	0.135055	0.064214	6665.042480
5511.478519	0.097566	0.064214	6752.559082
5511.479439	0.097709	0.064214	6842.451172
5511.480342	0.097731	0.064214	6930.702148
5511.481247	0.097698	0.064214	7019.118652
5511.482133	0.097698	0.064214	7105.678711
5511.483089	0.097767	0.064214	7199.144043
5511.484006	0.097745	0.064214	7288.776367
5511.484900	0.097720	0.064214	7376.137695
5511.485835	0.097775	0.064214	7467.557129
5512.528376	0.988304	0.074542	473.397797
5512.529269	1.430002	0.074542	1750.390015
5512.530206	1.432042	0.074542	3092.213623
5512.531125	1.399427	0.074542	4378.287598
5512.532053	1.365242	0.074542	5645.231934
5512.532961	0.973583	0.074542	6529.245117
5512.533923	0.127361	0.074542	6651.766113
5512.534829	0.097625	0.074542	6740.213867
5512.535721	0.097731	0.074542	6827.389648
5512.536655	0.097731	0.074542	6918.669922
5512.537573	0.097654	0.074542	7008.315918
5512.538494	0.097756	0.074542	7098.349609
5512.539381	0.097716	0.074542	7185.023926
5512.540316	0.097797	0.074542	7276.463867
5512.541222	0.097720	0.074542	7364.998047
5512.542141	0.097789	0.074542	7454.866211
5513.536981	0.965142	0.064496	431.418304
5513.537882	1.427754	0.064496	1717.824585
5513.538791	1.433536	0.064496	3020.909180
5513.539731	1.400951	0.064496	4337.802734
5513.540640	1.367073	0.064496	5580.471680
5513.541554	1.036117	0.064496	6527.482422
5513.542487	0.146748	0.064496	6664.398437
5513.543400	0.097646	0.064496	6753.549805
5513.544304	0.097643	0.064496	6841.818848
5513.545191	0.097727	0.064496	6928.502930
5513.546144	0.097830	0.064496	7021.734375
5513.547051	0.097731	0.064496	7110.375977
5513.547942	0.097650	0.064496	7197.382324
5513.548864	0.097665	0.064496	7287.429199
5513.549774	0.097782	0.064496	7376.410645
5513.550669	0.097650	0.064496	7463.807617
5514.607586	0.970649	0.070103	439.704193
5514.608480	1.427596	0.070103	1715.975342
5514.609424	1.432793	0.070103	3068.531738
5514.610336	1.400101	0.070103	4345.423828
5514.611245	1.366769	0.070103	5587.816406
5514.612150	1.030576	0.070103	6520.487793
5514.613085	0.140391	0.070103	6651.752930
5514.613984	0.097551	0.070103	6739.451660
5514.614899	0.097668	0.070103	6828.818359
5514.615795	0.097745	0.070103	6916.398437
5514.616738	0.097753	0.070103	7008.579102
5514.617635	0.097745	0.070103	7096.256836
5514.618525	0.097705	0.070103	7183.214355
5514.619459	0.097716	0.070103	7274.480957
5514.620367	0.097712	0.070103	7363.203613
5514.621266	0.097701	0.070103	7451.037109
5515.590096	0.955140	0.058735	420.261749
5515.590997	1.427120	0.058735	1706.097290
5515.591916	1.433141	0.058735	3023.153809
5515.592862	1.400629	0.058735	4348.148437
5515.593770	1.366758	0.058735	5589.164551
5515.594671	1.044207	0.058735	6529.994629
5515.595613	0.147847	0.058735	6669.266113
5515.596517	0.097676	0.058735	6757.564941
5515.597408	0.097749	0.058735	6844.659180
5515.598296	0.097753	0.058735	6931.463379
5515.599230	0.097775	0.058735	7022.785156
5515.600138	0.097723	0.058735	7111.518066
5515.601039	0.097742	0.058735	7199.583496
5515.601945	0.097760	0.058735	7288.154297
5515.602865	0.097800	0.058735	7378.130371
5515.603773	0.097643	0.058735	7466.790039
5516.698056	0.947428	0.061188	414.026031
5516.699012	1.430852	0.061188	1781.920532
5516.699929	1.432031	0.061188	3095.093262
5516.700842	1.399885	0.061188	4373.188477
5516.701739	1.366227	0.061188	5598.693848
5516.702698	0.975333	0.061188	6534.038574
5516.703611	0.135048	0.061188	6657.336914
5516.704502	0.097595	0.061188	6744.294434
5516.705441	0.097811	0.061188	6836.139160
5516.706339	0.097778	0.061188	6923.944336
5516.707238	0.097672	0.061188	7011.751465
5516.708129	0.097687	0.061188	7098.790527
5516.709061	0.097731	0.061188	7189.875488
5516.709962	0.097826	0.061188	7278.016602
5516.710866	0.097749	0.061188	7366.381836
5516.711751	0.097687	0.061188	7452.834473
5517.641154	0.945568	0.070667	407.539673
5517.642112	1.429266	0.070667	1776.776855
5517.643039	1.431680	0.070667	3103.943848
5517.643950	1.399439	0.070667	4378.832031
5517.644845	1.366011	0.070667	5601.411621
5517.645810	0.965358	0.070667	6532.981934
5517.646716	0.133791	0.070667	6654.197266
5517.647614	0.097573	0.070667	6741.817871
5517.648550	0.097756	0.070667	6833.317871
5517.649455	0.097771	0.070667	6921.800781
5517.650350	0.097753	0.070667	7009.289551
5517.651246	0.097716	0.070667	7096.843262
5517.652176	0.097852	0.070667	7187.845215
5517.653083	0.097749	0.070667	7276.503418
5517.653984	0.097756	0.070667	7364.582031
5517.654876	0.097760	0.070667	7451.784180
5518.771144	0.949794	0.062329	416.009674
5518.772100	1.431031	0.062329	1784.075684
5518.773024	1.431526	0.062329	3106.805664
5518.773934	1.399270	0.062329	4380.141602
5518.774827	1.365967	0.062329	5599.950195
5518.775799	0.956353	0.062329	6529.524902
5518.776709	0.131605	0.062329	6649.285645
5518.777607	0.097581	0.062329	6736.913086
5518.778540	0.097756	0.062329	6828.119629
5518.779439	0.097742	0.062329	6915.989258
5518.780336	0.097727	0.062329	7003.650391
5518.781227	0.097650	0.062329	7090.656738
5518.782162	0.097837	0.062329	7182.134277
5518.783069	0.097727	0.062329	7270.772949
5518.783973	0.097753	0.062329	7359.141602
5518.784861	0.097797	0.062329	7445.984863
5519.728079	0.961102	0.066272	420.962799
5519.729012	1.429585	0.066272	1754.765503
5519.729934	1.432372	0.066272	3075.412109
5519.730836	1.400585	0.066272	4338.739258
5519.731773	1.366571	0.066272	5619.216309
5519.732705	0.991450	0.066272	6543.248047
5519.733612	0.137644	0.066272	6668.091309
5519.734502	0.097540	0.066272	6754.902344
5519.735447	0.097815	0.066272	6847.337402
5519.736351	0.097738	0.066272	6935.692383
5519.737249	0.097709	0.066272	7023.435059
5519.738144	0.097727	0.066272	7110.900879
5519.739082	0.097844	0.066272	7202.678711
5519.739989	0.097694	0.066272	7291.287109
5519.740886	0.097738	0.066272	7378.958008
5519.741816	0.097859	0.066272	7469.966797
5520.807877	0.945831	0.068609	411.436615
5520.808839	1.428344	0.068609	1785.503174
5520.809752	1.431856	0.068609	3092.787354
5520.810660	1.399775	0.068609	4363.783203
5520.811560	1.366395	0.068609	5593.539062
5520.812527	0.969536	0.068609	6531.080566
5520.813434	0.134531	0.068609	6653.100586
5520.814326	0.097548	0.068609	6740.113281
5520.815254	0.097727	0.068609	6830.804199
5520.816163	0.097646	0.068609	6919.564941
5520.817059	0.097731	0.068609	7007.131836
5520.817948	0.097764	0.068609	7094.043945
5520.818890	0.097815	0.068609	7186.185547
5520.819789	0.097723	0.068609	7274.039062
5520.820688	0.097731	0.068609	7361.898926
5520.821618	0.097756	0.068609	7452.812500
5521.821130	0.961271	0.062949	422.959137
5521.822086	1.431332	0.062949	1791.312256
5521.823005	1.431866	0.062949	3107.197510
5521.823910	1.399633	0.062949	4373.865234
5521.824847	1.365472	0.062949	5653.312988
5521.825773	0.971928	0.062949	6553.317871
5521.826672	0.135677	0.062949	6675.291992
5521.827562	0.097559	0.062949	6762.119141
5521.828506	0.097793	0.062949	6854.435547
5521.829414	0.097720	0.062949	6943.165039
5521.830314	0.097712	0.062949	7031.105957
5521.831199	0.097701	0.062949	7117.571777
5521.832129	0.097760	0.062949	7208.488770
5521.833037	0.097603	0.062949	7297.111816
5521.833933	0.097676	0.062949	7384.629395
5521.834852	0.097694	0.062949	7474.410156
5522.879961	0.958011	0.068899	427.273102
5522.880860	1.427223	0.068899	1710.346558
5522.881821	1.432401	0.068899	3086.884033
5522.882727	1.399816	0.068899	4355.117187
5522.883637	1.366256	0.068899	5598.410156
5522.884538	1.030192	0.068899	6526.612793
5522.885482	0.137604	0.068899	6656.510742
5522.886397	0.097537	0.068899	6745.756836
5522.887293	0.097727	0.068899	6833.320312
5522.888180	0.097727	0.068899	6920.004395
5522.889127	0.097742	0.068899	7012.565918
5522.890025	0.097628	0.068899	7100.235840
5522.890912	0.097643	0.068899	7186.845215
5522.891854	0.097723	0.068899	7278.900879
5522.892757	0.097760	0.068899	7367.178223
5522.893656	0.097694	0.068899	7455.005371
5523.859921	0.952782	0.060810	422.082428
5523.860812	1.426468	0.060810	1693.065796
5523.861760	1.432438	0.060810	3051.016846
5523.862690	1.400013	0.060810	4353.029297
5523.863597	1.366498	0.060810	5592.442871
5523.864544	0.984049	0.060810	6524.337402
5523.865453	0.136696	0.060810	6648.593750
5523.866359	0.097515	0.060810	6736.941895
5523.867254	0.097599	0.060810	6824.292969
5523.868189	0.097745	0.060810	6915.685059
5523.869088	0.097683	0.060810	7003.501953
5523.869988	0.097599	0.060810	7091.340820
5523.870875	0.097687	0.060810	7177.988770
5523.871812	0.097720	0.060810	7269.552246
5523.872722	0.097665	0.060810	7358.427246
5523.873622	0.097665	0.060810	7446.325684
5524.982750	0.972019	0.062224	437.408569
5524.983653	1.428190	0.062224	1727.063965
5524.984592	1.432639	0.062224	3072.312012
5524.985508	1.399922	0.062224	4354.640625
5524.986416	1.366487	0.062224	5595.410645
5524.987317	1.030664	0.062224	6524.039062
5524.988276	0.135992	0.062224	6654.455566
5524.989182	0.097515	0.062224	6742.803711
5524.990076	0.097628	0.062224	6830.083496
5524.990986	0.097661	0.062224	6918.955078
5524.991910	0.097742	0.062224	7009.268555
5524.992816	0.097643	0.062224	7097.732910
5524.993712	0.097650	0.062224	7185.227539
5524.994647	0.097778	0.062224	7276.650391
5524.995550	0.097636	0.062224	7364.815430
5524.996452	0.097690	0.062224	7452.932129
5525.925865	0.983694	0.070937	462.336090
5525.926764	1.428596	0.070937	1746.644043
5525.927720	1.432028	0.070937	3115.662354
5525.928629	1.399153	0.070937	4387.492187
5525.929540	1.365644	0.070937	5631.594238
5525.930439	1.011471	0.070937	6540.906738
5525.931379	0.135198	0.070937	6667.992676
5525.932282	0.097562	0.070937	6756.091309
5525.933185	0.097643	0.070937	6844.262695
5525.934075	0.097720	0.070937	6931.233398
5525.935012	0.097749	0.070937	7022.824219
5525.935916	0.097654	0.070937	7111.103027
5525.936806	0.097668	0.070937	7198.027832
5525.937744	0.097815	0.070937	7289.778320
5525.938655	0.097771	0.070937	7378.847656
5525.939559	0.097573	0.070937	7467.053711
5527.019480	0.954972	0.066586	424.007568
5527.020376	1.427150	0.066586	1702.733643
5527.021307	1.432793	0.066586	3036.663818
5527.022242	1.399871	0.066586	4345.542969
5527.023157	1.366329	0.066586	5595.734375
5527.024055	1.031898	0.066586	6522.378906
5527.024996	0.142811	0.066586	6656.764160
5527.025903	0.097559	0.066586	6745.250000
5527.026799	0.097753	0.066586	6832.836426
5527.027687	0.097654	0.066586	6919.553223
5527.028632	0.097676	0.066586	7011.856934
5527.029526	0.097720	0.066586	7099.218262
5527.030418	0.097573	0.066586	7186.253418
5527.031345	0.097701	0.066586	7276.822754
5527.032266	0.097694	0.066586	7366.798828
5527.033178	0.097665	0.066586	7455.869141
5528.030155	0.954891	0.063166	418.242401
5528.031142	1.431024	0.063166	1830.663330
5528.032054	1.431094	0.063166	3135.820801
5528.032961	1.398746	0.063166	4404.483887
5528.033853	1.365546	0.063166	5622.550781
5528.034807	0.959333	0.063166	6537.754883
5528.035715	0.132773	0.063166	6658.312988
5528.036610	0.097522	0.063166	6745.595215
5528.037543	0.097756	0.063166	6836.801758
5528.038451	0.097815	0.063166	6925.617676
5528.039353	0.097690	0.063166	7013.734375
5528.040240	0.097731	0.063166	7100.421387
5528.041194	0.097694	0.063166	7193.621582
5528.042100	0.097797	0.063166	7282.225098
5528.042997	0.097749	0.063166	7369.905762
5528.043880	0.097690	0.063166	7456.166504
5529.089498	0.960916	0.069624	433.372894
5529.090391	1.427399	0.069624	1708.039917
5529.091333	1.432573	0.069624	3057.523926
5529.092259	1.399823	0.069624	4353.759766
5529.093164	1.366644	0.069624	5590.572754
5529.094063	1.032693	0.069624	6518.963379
5529.095015	0.138065	0.069624	6650.401367
5529.095916	0.097592	0.069624	6738.331543
5529.096807	0.097767	0.069624	6825.442383
5529.097728	0.097775	0.069624	6915.492676
5529.098654	0.097789	0.069624	7006.045410
5529.099558	0.097625	0.069624	7094.297852
5529.100443	0.097654	0.069624	7180.721680
5529.101380	0.097723	0.069624	7272.288574
5529.102293	0.097753	0.069624	7361.536621
5529.103193	0.097687	0.069624	7449.454590
5530.063301	0.950907	0.057922	414.595428
5530.064258	1.430230	0.057922	1783.325073
5530.065183	1.431570	0.057922	3107.527100
5530.066094	1.399508	0.057922	4382.479004
5530.066989	1.365956	0.057922	5605.009766
5530.067959	0.958326	0.057922	6534.586426
5530.068866	0.132579	0.057922	6654.835937
5530.069761	0.097551	0.057922	6742.144531
5530.070698	0.097672	0.057922	6833.663086
5530.071598	0.097789	0.057922	6921.673340
5530.072488	0.097720	0.057922	7008.644043
5530.073381	0.097808	0.057922	7095.986328
5530.074316	0.097775	0.057922	7187.405762
5530.075222	0.097676	0.057922	7275.899902
5530.076126	0.097676	0.057922	7364.198730
5530.077013	0.097738	0.057922	7450.892578
5531.191247	0.958253	0.059682	423.547882
5531.192170	1.428398	0.059682	1741.959717
5531.193076	1.432983	0.059682	3040.242676
5531.194020	1.400208	0.059682	4362.038574
5531.194937	1.366223	0.059682	5614.865234
5531.195855	1.008882	0.059682	6541.019043
5531.196742	0.146206	0.059682	6670.703613
5531.197693	0.097599	0.059682	6763.520020
5531.198595	0.097665	0.059682	6851.613770
5531.199484	0.097665	0.059682	6938.437988
5531.200406	0.097701	0.059682	7028.518555
5531.201327	0.097742	0.059682	7118.538574
5531.202240	0.097650	0.059682	7207.693359
5531.203143	0.097690	0.059682	7295.907715
5531.204074	0.097672	0.059682	7386.840332
5531.204977	0.097749	0.059682	7475.107910
5532.135386	0.967947	0.072629	438.479919
5532.136278	1.427355	0.072629	1711.680420
5532.137226	1.432416	0.072629	3069.610596
5532.138144	1.399871	0.072629	4354.691895
5532.139056	1.366516	0.072629	5600.954590
5532.139957	1.027800	0.072629	6527.002930
5532.140904	0.136831	0.072629	6656.582031
5532.141811	0.097573	0.072629	6745.081055
5532.142710	0.097646	0.072629	6832.865234
5532.143625	0.097749	0.072629	6922.305664
5532.144541	0.097668	0.072629	7011.770020
5532.145449	0.097566	0.072629	7100.359863
5532.146344	0.097690	0.072629	7187.792969
5532.147272	0.097797	0.072629	7278.548340
5532.148176	0.097786	0.072629	7366.946777
5532.149080	0.097570	0.072629	7455.149902
5533.224410	0.967709	0.065902	432.565796
5533.225344	1.428981	0.065902	1767.233765
5533.226244	1.432624	0.065902	3056.595703
5533.227189	1.399534	0.065902	4379.155273
5533.228096	1.365758	0.065902	5617.897949
5533.229011	1.001715	0.065902	6534.467285
5533.229901	0.143668	0.065902	6662.332031
5533.230847	0.097551	0.065902	6754.615723
5533.231756	0.097683	0.065902	6843.409668
5533.232648	0.097643	0.065902	6930.506836
5533.233564	0.097756	0.065902	7020.051758
5533.234480	0.097720	0.065902	7109.562988
5533.235389	0.097625	0.065902	7198.303711
5533.236282	0.097654	0.065902	7285.508789
5533.237216	0.097668	0.065902	7376.730957
5533.238120	0.097694	0.065902	7465.046387
5534.236105	0.953723	0.059787	417.730743
5534.237051	1.428300	0.059787	1768.902100
5534.237977	1.431936	0.059787	3094.875000
5534.238884	1.399940	0.059787	4364.620605
5534.239779	1.366622	0.059787	5587.747559
5534.240742	0.978977	0.059787	6530.502441
5534.241648	0.137186	0.059787	6654.792969
5534.242537	0.097617	0.059787	6741.574707
5534.243462	0.097727	0.059787	6831.972168
5534.244373	0.097745	0.059787	6921.018066
5534.245287	0.097683	0.059787	7010.300293
5534.246186	0.097742	0.059787	7098.169922
5534.247118	0.097753	0.059787	7189.275391
5534.248026	0.097767	0.059787	7278.048340
5534.248938	0.097657	0.059787	7367.111816
5534.249826	0.097738	0.059787	7453.903320
5535.295440	0.954481	0.074675	420.926178
5535.296336	1.425952	0.074675	1698.579346
5535.297299	1.432244	0.074675	3077.830078
5535.298219	1.399827	0.074675	4365.670410
5535.299119	1.366516	0.074675	5595.535156
5535.300061	0.987228	0.074675	6525.503906
5535.300967	0.138816	0.074675	6651.270996
5535.301877	0.097515	0.074675	6740.009277
5535.302778	0.097694	0.074675	6828.031738
5535.303705	0.097793	0.074675	6918.686035
5535.304611	0.097716	0.074675	7007.216797
5535.305512	0.097701	0.074675	7095.245605
5535.306399	0.097727	0.074675	7181.929687
5535.307358	0.097841	0.074675	7275.758789
5535.308267	0.097731	0.074675	7364.596191
5535.309162	0.097756	0.074675	7452.087891
5536.274398	0.972484	0.064709	435.672882
5536.275298	1.427695	0.064709	1720.598633
5536.276194	1.433437	0.064709	3004.958496
5536.277154	1.400090	0.064709	4349.044922
5536.278071	1.366197	0.064709	5601.848145
5536.278970	1.031880	0.064709	6529.507812
5536.279889	0.149652	0.064709	6667.038086
5536.280813	0.097690	0.064709	6757.304199
5536.281724	0.097709	0.064709	6846.316895
5536.282620	0.097742	0.064709	6933.893555
5536.283547	0.097859	0.064709	7024.608887
5536.284451	0.097800	0.064709	7113.020508
5536.285351	0.097716	0.064709	7200.964844
5536.286239	0.097676	0.064709	7287.701172
5536.287175	0.097830	0.064709	7379.269531
5536.288078	0.097866	0.064709	7467.642578
5537.397707	0.954723	0.059541	419.123383
5537.398610	1.426575	0.059541	1707.320435
5537.399503	1.433547	0.059541	2987.478027
5537.400465	1.400720	0.059541	4334.970703
5537.401380	1.366956	0.059541	5585.735352
5537.402285	1.044741	0.059541	6531.226074
5537.403214	0.152281	0.059541	6672.695801
5537.404116	0.097577	0.059541	6760.709961
5537.405021	0.097668	0.059541	6849.100098
5537.405917	0.097749	0.059541	6936.683105
5537.406853	0.097826	0.059541	7028.248047
5537.407760	0.097800	0.059541	7116.953125
5537.408664	0.097767	0.059541	7205.334961
5537.409552	0.097727	0.059541	7292.116699
5537.410496	0.097760	0.059541	7384.402344
5537.411399	0.097764	0.059541	7472.683105
5538.334175	0.970404	0.071984	435.711395
5538.335080	1.427673	0.071984	1727.755859
5538.335972	1.433284	0.071984	3006.244873
5538.336939	1.400079	0.071984	4360.121582
5538.337840	1.366022	0.071984	5590.907227
5538.338759	1.018433	0.071984	6526.846680
5538.339658	0.146323	0.071984	6658.391113
5538.340599	0.097614	0.071984	6750.245605
5538.341505	0.097661	0.071984	6838.726562
5538.342400	0.097676	0.071984	6926.146484
5538.343337	0.097778	0.071984	7017.764648
5538.344235	0.097753	0.071984	7105.546387
5538.345135	0.097683	0.071984	7193.460937
5538.346021	0.097636	0.071984	7279.965820
5538.346968	0.097797	0.071984	7372.579102
5538.347871	0.097723	0.071984	7460.823242
5539.448776	0.948164	0.065442	413.399536
5539.449730	1.427260	0.065442	1775.005127
5539.450652	1.431687	0.065442	3095.020508
5539.451562	1.399413	0.065442	4368.486328
5539.452455	1.366523	0.065442	5588.791992
5539.453418	0.975161	0.065442	6527.872070
5539.454326	0.134198	0.065442	6649.723633
5539.455235	0.097537	0.065442	6738.384277
5539.456122	0.097808	0.065442	6825.139648
5539.457058	0.097896	0.065442	6916.770020
5539.457967	0.097723	0.065442	7005.600586
5539.458857	0.097672	0.065442	7092.528809
5539.459785	0.097742	0.065442	7183.232910
5539.460694	0.097771	0.065442	7272.106934
5539.461591	0.097679	0.065442	7359.725586
5539.462477	0.097628	0.065442	7446.224121
5540.432329	0.945370	0.071267	412.181274
5540.433283	1.430570	0.071267	1776.945190
5540.434194	1.432094	0.071267	3081.582520
5540.435099	1.399764	0.071267	4348.369141
5540.435991	1.366831	0.071267	5567.582520
5540.436951	1.003645	0.071267	6531.082031
5540.437849	0.142760	0.071267	6659.280273
5540.438746	0.097555	0.071267	6746.787109
5540.439673	0.097668	0.071267	6837.325684
5540.440582	0.097668	0.071267	6926.106445
5540.441480	0.097723	0.071267	7013.861816
5540.442368	0.097775	0.071267	7100.685547
5540.443316	0.097756	0.071267	7193.358398
5540.444223	0.097665	0.071267	7281.940430
5540.445118	0.097731	0.071267	7369.409180
5540.446000	0.097701	0.071267	7455.582031
5541.494735	0.952800	0.070768	421.137726
5541.495630	1.425919	0.070768	1697.335327
5541.496591	1.432357	0.070768	3073.830566
5541.497504	1.400002	0.070768	4352.032715
5541.498404	1.366761	0.070768	5582.118164
5541.499313	1.001360	0.070768	6492.354492
5541.500259	0.138318	0.070768	6623.203125
5541.501164	0.097559	0.070768	6711.493652
5541.502056	0.097687	0.070768	6798.630371
5541.502983	0.097679	0.070768	6889.179199
5541.503883	0.097855	0.070768	6977.249023
5541.504780	0.097742	0.070768	7064.923340
5541.505666	0.097793	0.070768	7151.567871
5541.506621	0.097709	0.070768	7244.879883
5541.507518	0.097760	0.070768	7332.570801
5541.508427	0.097738	0.070768	7421.414551
5542.511076	0.978311	0.060338	448.066223
5542.511974	1.428398	0.060338	1730.768066
5542.512934	1.431720	0.060338	3105.219238
5542.513837	1.399420	0.060338	4368.895508
5542.514744	1.365919	0.060338	5607.784180
5542.515647	1.013276	0.060338	6522.772461
5542.516588	0.136267	0.060338	6651.000000
5542.517498	0.097592	0.060338	6739.808105
5542.518393	0.097603	0.060338	6827.162598
5542.519321	0.097727	0.060338	6917.853516
5542.520231	0.097720	0.060338	7006.778320
5542.521141	0.097646	0.060338	7095.636719
5542.522035	0.097643	0.060338	7182.929199
5542.522970	0.097709	0.060338	7274.287109
5542.523863	0.097672	0.060338	7361.508301
5542.524764	0.097668	0.060338	7449.507812
5543.569408	0.991179	0.072911	488.651337
5543.570324	1.431973	0.072911	1800.338257
5543.571233	1.431533	0.072911	3101.602051
5543.572129	1.399676	0.072911	4355.711914
5543.573085	1.364700	0.072911	5660.364746
5543.574017	0.950369	0.072911	6546.108398
5543.574912	0.132089	0.072911	6664.327637
5543.575818	0.097592	0.072911	6752.745605
5543.576738	0.097749	0.072911	6842.674805
5543.577644	0.097672	0.072911	6931.165527
5543.578534	0.097672	0.072911	7018.093750
5543.579460	0.097749	0.072911	7108.609375
5543.580366	0.097731	0.072911	7197.153320
5543.581264	0.097742	0.072911	7284.925293
5543.582157	0.097716	0.072911	7372.185547
5543.583110	0.097778	0.072911	7465.368164
5544.566241	0.975776	0.059742	443.978241
5544.567160	1.429288	0.059742	1757.494141
5544.568074	1.432189	0.059742	3066.514648
5544.568974	1.399995	0.059742	4326.510254
5544.569923	1.366025	0.059742	5622.868164
5544.570852	0.989828	0.059742	6542.418457
5544.571735	0.142222	0.059742	6668.000000
5544.572668	0.097551	0.059742	6759.015137
5544.573578	0.097723	0.059742	6847.943359
5544.574482	0.097588	0.059742	6936.162598
5544.575375	0.097742	0.059742	7023.445801
5544.576325	0.097793	0.059742	7116.349121
5544.577230	0.097742	0.059742	7204.805176
5544.578131	0.097701	0.059742	7292.833984
5544.579036	0.097742	0.059742	7381.290039
5544.579968	0.097771	0.059742	7472.412598
5545.654227	0.965724	0.066655	433.610016
5545.655127	1.427307	0.066655	1718.186401
5545.656066	1.432394	0.066655	3063.204102
5545.656989	1.399944	0.066655	4355.352539
5545.657903	1.366176	0.066655	5604.037109
5545.658805	1.007153	0.066655	6512.489258
5545.659747	0.138662	0.066655	6643.108887
5545.660659	0.097504	0.066655	6732.032227
5545.661548	0.097665	0.066655	6818.856445
5545.662473	0.097749	0.066655	6909.274414
5545.663377	0.097819	0.066655	6997.702637
5545.664277	0.097683	0.066655	7085.617187
5545.665168	0.097606	0.066655	7172.584473
5545.666107	0.097793	0.066655	7264.412109
5545.667017	0.097855	0.066655	7353.460449
5545.667919	0.097650	0.066655	7441.541016
5546.620376	0.967614	0.062780	438.328949
5546.621274	1.427904	0.062780	1720.586792
5546.622194	1.433093	0.062780	3039.032471
5546.623120	1.400391	0.062780	4335.793945
5546.624041	1.366443	0.062780	5594.288086
5546.624947	1.031960	0.062780	6529.244141
5546.625899	0.140903	0.062780	6663.384277
5546.626799	0.097603	0.062780	6751.226562
5546.627694	0.097665	0.062780	6838.636719
5546.628581	0.097793	0.062780	6925.378906
5546.629512	0.097727	0.062780	7016.362793
5546.630418	0.097683	0.062780	7104.863770
5546.631314	0.097636	0.062780	7192.345215
5546.632234	0.097742	0.062780	7282.267578
5546.633148	0.097727	0.062780	7371.590332
5546.634057	0.097712	0.062780	7460.411133
5547.734475	0.947574	0.068854	415.037628
5547.735402	1.426450	0.068854	1737.356934
5547.736339	1.431881	0.068854	3079.029541
5547.737260	1.399449	0.068854	4367.922363
5547.738161	1.365992	0.068854	5598.681641
5547.739124	0.970605	0.068854	6533.375000
5547.740029	0.134088	0.068854	6654.724609
5547.740937	0.097537	0.068854	6743.288086
5547.741824	0.097668	0.068854	6829.919922
5547.742763	0.097782	0.068854	6921.737305
5547.743664	0.097657	0.068854	7009.726562
5547.744557	0.097636	0.068854	7096.915039
5547.745473	0.097668	0.068854	7186.379395
5547.746366	0.097705	0.068854	7273.629883
5547.747310	0.097661	0.068854	7365.821777
5547.748215	0.097614	0.068854	7454.162109
5548.682184	0.952299	0.063098	413.297546
5548.683133	1.427695	0.063098	1768.180420
5548.684053	1.431650	0.063098	3085.298828
5548.684974	1.399248	0.063098	4374.006348
5548.685882	1.365604	0.063098	5613.975098
5548.686865	0.931498	0.063098	6529.637695
5548.687763	0.129576	0.063098	6645.997070
5548.688654	0.097562	0.063098	6732.924805
5548.689580	0.097738	0.063098	6823.430176
5548.690491	0.097665	0.063098	6912.402832
5548.691387	0.097701	0.063098	6999.943359
5548.692272	0.097657	0.063098	7086.370117
5548.693202	0.097731	0.063098	7177.259766
5548.694107	0.097632	0.063098	7265.616699
5548.695023	0.097632	0.063098	7355.047363
5548.695908	0.097632	0.063098	7441.451660
5549.807584	0.982555	0.064834	453.940369
5549.808478	1.428098	0.064834	1730.660156
5549.809448	1.431475	0.064834	3119.190430
5549.810370	1.398431	0.064834	4408.543945
5549.811280	1.365018	0.064834	5650.710937
5549.812187	0.955547	0.064834	6517.392090
5549.813139	0.128002	0.064834	6639.249512
5549.814041	0.097654	0.064834	6727.333008
5549.814935	0.097742	0.064834	6814.713867
5549.815864	0.097822	0.064834	6905.590820
5549.816766	0.097716	0.064834	6993.730469
5549.817663	0.097742	0.064834	7081.404785
5549.818551	0.097712	0.064834	7168.173340
5549.819491	0.097764	0.064834	7260.071289
5549.820392	0.097716	0.064834	7348.113281
5549.821297	0.097720	0.064834	7436.549805
5550.750666	0.954115	0.063428	419.810577
5550.751563	1.426223	0.063428	1699.132568
5550.752553	1.431486	0.063428	3116.303223
5550.753471	1.398662	0.063428	4400.274902
5550.754374	1.365399	0.063428	5633.230469
5550.755332	0.947809	0.063428	6541.231445
5550.756234	0.130624	0.063428	6659.054199
5550.757132	0.097544	0.063428	6746.648437
5550.758022	0.097734	0.063428	6833.631836
5550.758968	0.097742	0.063428	6926.095703
5550.759875	0.097709	0.063428	7014.717773
5550.760777	0.097672	0.063428	7102.817871
5550.761666	0.097657	0.063428	7189.635254
5550.762614	0.097749	0.063428	7282.301270
5550.763522	0.097683	0.063428	7370.997559
5550.764413	0.097720	0.063428	7458.065918
5551.877573	0.949010	0.063315	412.819336
5551.878538	1.427373	0.063315	1790.234375
5551.879458	1.431493	0.063315	3107.208008
5551.880363	1.399109	0.063315	4373.401367
5551.881259	1.366197	0.063315	5597.514160
5551.882217	0.970012	0.063315	6526.785645
5551.883122	0.134828	0.063315	6648.804687
5551.884029	0.097573	0.063315	6737.303711
5551.884926	0.097727	0.063315	6824.964844
5551.885878	0.097764	0.063315	6918.035645
5551.886786	0.097723	0.063315	7006.768555
5551.887685	0.097756	0.063315	7094.651367
5551.888635	0.097819	0.063315	7187.579102
5551.889532	0.097811	0.063315	7275.315918
5551.890431	0.097720	0.063315	7363.166016
5551.891319	0.097723	0.063315	7449.944336
5552.820183	0.965292	0.065527	434.381256
5552.821079	1.427227	0.065527	1713.176270
5552.822031	1.431962	0.065527	3076.403809
5552.822946	1.399808	0.065527	4357.228516
5552.823854	1.366153	0.065527	5597.695801
5552.824751	1.012006	0.065527	6505.464844
5552.825709	0.135996	0.065527	6635.749023
5552.826609	0.097493	0.065527	6723.492187
5552.827500	0.097661	0.065527	6810.508301
5552.828436	0.097694	0.065527	6901.950195
5552.829337	0.097760	0.065527	6990.031738
5552.830232	0.097687	0.065527	7077.461426
5552.831122	0.097727	0.065527	7164.438477
5552.832056	0.097690	0.065527	7255.681152
5552.832963	0.097694	0.065527	7344.289551
5552.833869	0.097668	0.065527	7432.777344
5553.944009	0.949863	0.067948	415.090271
5553.944963	1.426736	0.067948	1776.196289
5553.945883	1.431522	0.067948	3093.196777
5553.946794	1.399354	0.067948	4368.008789
5553.947692	1.366165	0.067948	5594.824707
5553.948659	0.966357	0.067948	6529.292480
5553.949562	0.133817	0.067948	6650.129395
5553.950462	0.097617	0.067948	6737.984863
5553.951350	0.097749	0.067948	6824.786133
5553.952300	0.097782	0.067948	6917.679199
5553.953213	0.097723	0.067948	7006.900879
5553.954104	0.097731	0.067948	7093.979004
5553.955042	0.097771	0.067948	7185.687988
5553.955952	0.097778	0.067948	7274.666016
5553.956853	0.097727	0.067948	7362.718262
5553.957742	0.097687	0.067948	7449.562012
5554.894278	0.947065	0.060979	411.973480
5554.895248	1.431266	0.060979	1800.301392
5554.896165	1.431482	0.060979	3112.970215
5554.897071	1.399211	0.060979	4380.655762
5554.897979	1.365340	0.060979	5620.384766
5554.898932	0.960963	0.060979	6536.182617
5554.899839	0.133110	0.060979	6656.913574
5554.900733	0.097614	0.060979	6744.180176
5554.901658	0.097815	0.060979	6834.659180
5554.902565	0.097822	0.060979	6923.383789
5554.903465	0.097786	0.060979	7011.390625
5554.904353	0.097789	0.060979	7098.227539
5554.905311	0.097764	0.060979	7191.885254
5554.906217	0.097771	0.060979	7280.465820
5554.907110	0.097789	0.060979	7367.791504
5554.908019	0.097738	0.060979	7456.635254
5556.004301	0.954291	0.071727	417.979340
5556.005260	1.430768	0.071727	1790.085693
5556.006177	1.431416	0.071727	3102.694336
5556.007072	1.399922	0.071727	4355.624023
5556.008011	1.365729	0.071727	5638.043457
5556.008939	0.980577	0.071727	6548.019043
5556.009828	0.138926	0.071727	6671.523926
5556.010717	0.097504	0.071727	6758.204590
5556.011650	0.097786	0.071727	6849.438477
5556.012557	0.097742	0.071727	6938.090332
5556.013467	0.097778	0.071727	7027.068359
5556.014353	0.097753	0.071727	7113.677246
5556.015295	0.097778	0.071727	7205.784180
5556.016202	0.097745	0.071727	7294.439453
5556.017095	0.097716	0.071727	7381.699707
5556.018034	0.097764	0.071727	7473.500000
5556.975065	0.966185	0.058236	428.020111
5556.975991	1.428201	0.058236	1750.533936
5556.976885	1.432734	0.058236	3031.398437
5556.977805	1.400303	0.058236	4319.676758
5556.978742	1.366348	0.058236	5599.944336
5556.979672	1.003572	0.058236	6533.266113
5556.980571	0.142357	0.058236	6661.245117
5556.981504	0.097672	0.058236	6752.373047
5556.982409	0.097716	0.058236	6840.806152
5556.983316	0.097676	0.058236	6929.397949
5556.984203	0.097753	0.058236	7016.104492
5556.985150	0.097811	0.058236	7108.731934
5556.986057	0.097731	0.058236	7197.373535
5556.986943	0.097720	0.058236	7283.953125
5556.987866	0.097782	0.058236	7374.206055
5556.988786	0.097789	0.058236	7464.172363
5558.058991	0.985855	0.074748	457.436523
5558.059900	1.428776	0.074748	1756.193604
5558.060795	1.432306	0.074748	3038.107422
5558.061749	1.399482	0.074748	4373.213867
5558.062658	1.365670	0.074748	5614.607910
5558.063564	1.013075	0.074748	6532.453613
5558.064497	0.145503	0.074748	6668.208008
5558.065404	0.097599	0.074748	6756.729980
5558.066301	0.097679	0.074748	6844.348633
5558.067192	0.097764	0.074748	6931.456055
5558.068137	0.097753	0.074748	7023.832520
5558.069041	0.097822	0.074748	7112.263672
5558.069945	0.097734	0.074748	7200.615723
5558.070829	0.097650	0.074748	7286.938477
5558.071768	0.097811	0.074748	7378.783203
5558.072670	0.097723	0.074748	7466.929687
5559.061499	1.007296	0.058570	481.487579
5559.062409	1.430929	0.058570	1783.632935
5559.063321	1.432016	0.058570	3089.631836
5559.064225	1.399830	0.058570	4355.078613
5559.065160	1.365754	0.058570	5632.059082
5559.066082	0.987133	0.058570	6542.195312
5559.066972	0.140823	0.058570	6667.527344
5559.067902	0.097632	0.058570	6758.325195
5559.068808	0.097723	0.058570	6846.862793
5559.069711	0.097749	0.058570	6935.130371
5559.070598	0.097742	0.058570	7021.827148
5559.071547	0.097786	0.058570	7114.625488
5559.072462	0.097734	0.058570	7204.052246
5559.073359	0.097745	0.058570	7291.729980
5559.074269	0.097745	0.058570	7380.678223
5559.075191	0.097815	0.058570	7470.863770
5560.116682	0.947498	0.073845	410.266449
5560.117633	1.426472	0.073845	1766.841431
5560.118544	1.432229	0.073845	3071.602051
5560.119445	1.400226	0.073845	4333.205566
5560.120341	1.366908	0.073845	5557.955078
5560.121301	1.002184	0.073845	6520.051758
5560.122205	0.140834	0.073845	6647.365234
5560.123114	0.097581	0.073845	6736.065918
5560.124001	0.097687	0.073845	6822.713867
5560.124942	0.097786	0.073845	6914.729980
5560.125856	0.097738	0.073845	7004.062500
5560.126752	0.097731	0.073845	7091.629395
5560.127695	0.097767	0.073845	7183.824219
5560.128594	0.097767	0.073845	7271.717285
5560.129487	0.097636	0.073845	7358.905762
5560.130378	0.097727	0.073845	7445.980469
5561.135070	0.971777	0.066151	437.299805
5561.135995	1.428666	0.066151	1758.815674
5561.136891	1.432507	0.066151	3042.342285
5561.137827	1.399548	0.066151	4352.319336
5561.138743	1.365619	0.066151	5603.226562
5561.139663	1.009808	0.066151	6532.250000
5561.140550	0.145448	0.066151	6661.262207
5561.141509	0.097665	0.066151	6754.922852
5561.142418	0.097701	0.066151	6843.733398
5561.143317	0.097701	0.066151	6931.566895
5561.144243	0.097716	0.066151	7022.051758
5561.145143	0.097760	0.066151	7110.035645
5561.146043	0.097628	0.066151	7197.900879
5561.146925	0.097672	0.066151	7284.047852
5561.147860	0.097723	0.066151	7375.419434
5561.148765	0.097734	0.066151	7463.869141
5562.192852	0.958301	0.064000	426.443878
5562.193750	1.426655	0.064000	1707.580322
5562.194711	1.431804	0.064000	3083.544434
5562.195627	1.399493	0.064000	4365.480469
5562.196526	1.366172	0.064000	5593.668945
5562.197473	0.987707	0.064000	6529.027832
5562.198376	0.138911	0.064000	6654.464355
5562.199283	0.097540	0.064000	6742.933594
5562.200178	0.097617	0.064000	6830.300781
5562.201117	0.097756	0.064000	6922.093750
5562.202020	0.097650	0.064000	7010.271973
5562.202924	0.097679	0.064000	7098.574219
5562.203812	0.097705	0.064000	7185.336426
5562.204763	0.097727	0.064000	7278.274902
5562.205673	0.097657	0.064000	7367.143066
5562.206563	0.097687	0.064000	7454.084473
5563.185099	0.952804	0.073753	417.328125
5563.186004	1.426454	0.073753	1708.268799
5563.186896	1.433335	0.073753	2986.803711
5563.187857	1.400508	0.073753	4332.691895
5563.188775	1.366520	0.073753	5587.157227
5563.189680	1.044536	0.073753	6532.462402
5563.190601	0.152373	0.073753	6672.797852
5563.191514	0.097632	0.073753	6761.935547
5563.192416	0.097679	0.073753	6850.042480
5563.193315	0.097716	0.073753	6937.889160
5563.194249	0.097749	0.073753	7029.186523
5563.195159	0.097756	0.073753	7118.145020
5563.196066	0.097650	0.073753	7206.713867
5563.196956	0.097690	0.073753	7293.658203
5563.197897	0.097841	0.073753	7385.726074
5563.198806	0.097742	0.073753	7474.573242
5564.291021	0.955023	0.057962	420.210236
5564.291942	1.427607	0.057962	1735.036621
5564.292848	1.432994	0.057962	3033.329590
5564.293772	1.400859	0.057962	4327.723633
5564.294698	1.366560	0.057962	5593.158203
5564.295622	1.017891	0.057962	6533.688965
5564.296508	0.148282	0.057962	6665.067383
5564.297450	0.097614	0.057962	6757.019531
5564.298358	0.097727	0.057962	6845.755859
5564.299259	0.097636	0.057962	6933.725586
5564.300153	0.097701	0.057962	7021.070801
5564.301105	0.097712	0.057962	7114.092773
5564.302011	0.097690	0.057962	7202.600098
5564.302908	0.097592	0.057962	7290.139648
5564.303840	0.097731	0.057962	7381.224609
5564.304743	0.097782	0.057962	7469.521973
5565.229522	0.953470	0.070840	419.527008
5565.230471	1.427069	0.070840	1773.815552
5565.231379	1.431856	0.070840	3073.940430
5565.232290	1.399977	0.070840	4349.319336
5565.233186	1.366963	0.070840	5574.118164
5565.234135	1.003726	0.070840	6526.653809
5565.235038	0.140969	0.070840	6653.949219
5565.235944	0.097573	0.070840	6742.350586
5565.236827	0.097723	0.070840	6828.640137
5565.237770	0.097789	0.070840	6920.855469
5565.238688	0.097617	0.070840	7010.468262
5565.239581	0.097760	0.070840	7097.768066
5565.240518	0.097815	0.070840	7189.420898
5565.241413	0.097712	0.070840	7276.873535
5565.242314	0.097687	0.070840	7364.889160
5565.243206	0.097712	0.070840	7452.048828
5566.362066	0.960992	0.066035	427.641632
5566.362965	1.427025	0.066035	1710.537231
5566.363899	1.432745	0.066035	3048.721436
5566.364809	1.400610	0.066035	4323.276855
5566.365719	1.367219	0.066035	5567.446289
5566.366612	1.045840	0.066035	6501.381348
5566.367570	0.143840	0.066035	6639.180176
5566.368477	0.097606	0.066035	6727.708984
5566.369366	0.097679	0.066035	6814.545898
5566.370299	0.097723	0.066035	6905.721680
5566.371208	0.097727	0.066035	6994.555664
5566.372118	0.097683	0.066035	7083.447266
5566.373016	0.097727	0.066035	7171.206055
5566.373950	0.097756	0.066035	7262.510254
5566.374847	0.097712	0.066035	7350.158203
5566.375745	0.097712	0.066035	7437.903809
5567.315416	0.964076	0.062212	436.726379
5567.316310	1.426751	0.062212	1712.241455
5567.317256	1.432152	0.062212	3067.057373
5567.318175	1.399695	0.062212	4353.376953
5567.319083	1.366227	0.062212	5593.911133
5567.319985	1.008962	0.062212	6503.995117
5567.320936	0.137032	0.062212	6634.312988
5567.321845	0.097562	0.062212	6722.997070
5567.322742	0.097661	0.062212	6810.599121
5567.323686	0.097654	0.062212	6902.784180
5567.324586	0.097797	0.062212	6990.801270
5567.325488	0.097679	0.062212	7078.908203
5567.326376	0.097584	0.062212	7165.562988
5567.327317	0.097705	0.062212	7257.503418
5567.328223	0.097676	0.062212	7345.997559
5567.329128	0.097822	0.062212	7434.526855
5568.401364	0.961776	0.073463	426.066803
5568.402266	1.426879	0.073463	1713.111206
5568.403159	1.433082	0.073463	2992.853516
5568.404101	1.400837	0.073463	4312.442383
5568.405022	1.366926	0.073463	5571.381348
5568.405933	1.042910	0.073463	6521.472656
5568.406869	0.150179	0.073463	6662.040527
5568.407779	0.097672	0.073463	6750.922363
5568.408676	0.097632	0.073463	6838.498047
5568.409567	0.097646	0.073463	6925.500977
5568.410506	0.097767	0.073463	7017.304687
5568.411409	0.097782	0.073463	7105.602051
5568.412307	0.097720	0.073463	7193.354492
5568.413194	0.097705	0.073463	7280.019043
5568.414130	0.097811	0.073463	7371.570312
5568.415041	0.097797	0.073463	7460.663086
5569.414099	0.960417	0.060338	426.425354
5569.415016	1.428105	0.060338	1735.998047
5569.415921	1.433002	0.060338	3032.864502
5569.416858	1.400314	0.060338	4344.958496
5569.417771	1.366575	0.060338	5592.641113
5569.418683	1.030221	0.060338	6532.202637
5569.419569	0.151615	0.060338	6666.533691
5569.420499	0.097603	0.060338	6757.304199
5569.421403	0.097639	0.060338	6845.569824
5569.422305	0.097643	0.060338	6933.643555
5569.423215	0.097731	0.060338	7022.578613
5569.424116	0.097603	0.060338	7110.518555
5569.425073	0.097665	0.060338	7203.983887
5569.425988	0.097603	0.060338	7293.290039
5569.426881	0.097636	0.060338	7380.478516
5569.427830	0.097716	0.060338	7473.210937
5570.462157	0.955031	0.070006	422.123474
5570.463050	1.426066	0.070006	1695.600098
5570.464016	1.432170	0.070006	3079.076660
5570.464928	1.399486	0.070006	4355.408203
5570.465834	1.366018	0.070006	5593.020508
5570.466788	0.982020	0.070006	6529.867676
5570.467697	0.135729	0.070006	6653.245117
5570.468595	0.097599	0.070006	6740.888672
5570.469482	0.097599	0.070006	6827.458984
5570.470418	0.097756	0.070006	6918.958984
5570.471326	0.097720	0.070006	7007.688477
5570.472222	0.097672	0.070006	7095.202637
5570.473128	0.097753	0.070006	7183.766602
5570.474038	0.097800	0.070006	7272.764648
5570.474950	0.097632	0.070006	7361.804687
5570.475846	0.097676	0.070006	7449.322266
5571.468756	0.953906	0.071634	416.857025
5571.469646	1.425802	0.071634	1685.820801
5571.470618	1.431984	0.071634	3077.708984
5571.471540	1.399156	0.071634	4367.731445
5571.472438	1.365970	0.071634	5594.373047
5571.473397	0.979332	0.071634	6533.552734
5571.474289	0.137758	0.071634	6656.432617
5571.475191	0.097482	0.071634	6744.361328
5571.476080	0.097657	0.071634	6831.178711
5571.477029	0.097698	0.071634	6923.894043
5571.477935	0.097661	0.071634	7012.375000
5571.478833	0.097749	0.071634	7100.153809
5571.479750	0.097742	0.071634	7189.782715
5571.480672	0.097756	0.071634	7279.914062
5571.481580	0.097661	0.071634	7368.590332
5571.482474	0.097694	0.071634	7455.928711
5572.562376	0.950204	0.058767	414.288879
5572.563350	1.430167	0.058767	1807.271729
5572.564269	1.430936	0.058767	3122.302246
5572.565170	1.399010	0.058767	4382.810059
5572.566063	1.365575	0.058767	5602.268555
5572.567008	0.984888	0.058767	6532.987305
5572.567920	0.137238	0.058767	6658.147949
5572.568817	0.097515	0.058767	6745.618652
5572.569752	0.097756	0.058767	6837.020996
5572.570660	0.097731	0.058767	6925.760254
5572.571563	0.097654	0.058767	7013.941406
5572.572454	0.097742	0.058767	7101.029297
5572.573402	0.097767	0.058767	7193.712891
5572.574299	0.097690	0.058767	7281.341309
5572.575193	0.097698	0.058767	7368.683105
5572.576079	0.097727	0.058767	7455.269043
5573.508058	0.968082	0.070868	438.541260
5573.508951	1.427344	0.070868	1713.159180
5573.509897	1.432009	0.070868	3067.839844
5573.510810	1.399878	0.070868	4345.928223
5573.511721	1.366344	0.070868	5590.667969
5573.512623	1.024025	0.070868	6514.338379
5573.513579	0.137640	0.070868	6645.922363
5573.514483	0.097588	0.070868	6734.141602
5573.515383	0.097683	0.070868	6822.056641
5573.516311	0.097826	0.070868	6912.838867
5573.517210	0.097848	0.070868	7000.804199
5573.518110	0.097723	0.070868	7088.755371
5573.518995	0.097764	0.070868	7175.276367
5573.519944	0.097855	0.070868	7268.141113
5573.520847	0.097804	0.070868	7356.458008
5573.521748	0.097731	0.070868	7444.513184
5574.641610	0.949669	0.062095	415.005432
5574.642503	1.425608	0.062095	1688.073242
5574.643475	1.431877	0.062095	3079.857910
5574.644396	1.399314	0.062095	4368.625977
5574.645305	1.365890	0.062095	5610.219727
5574.646265	0.962637	0.062095	6534.351074
5574.647170	0.134136	0.062095	6655.744141
5574.648068	0.097592	0.062095	6743.381348
5574.648956	0.097822	0.062095	6830.247559
5574.649890	0.097859	0.062095	6921.647949
5574.650793	0.097885	0.062095	7010.037598
5574.651697	0.097705	0.062095	7098.362793
5574.652587	0.097808	0.062095	7185.411621
5574.653535	0.097844	0.062095	7278.167969
5574.654442	0.097679	0.062095	7366.763184
5574.655340	0.097723	0.062095	7454.518555
5575.587291	0.965845	0.061881	428.835052
5575.588191	1.427054	0.061881	1713.184082
5575.589084	1.433251	0.061881	2993.076904
5575.590049	1.400112	0.061881	4344.185547
5575.590958	1.366454	0.061881	5586.291992
5575.591861	1.038468	0.061881	6524.028809
5575.592800	0.149143	0.061881	6664.074219
5575.593703	0.097610	0.061881	6752.215820
5575.594606	0.097720	0.061881	6840.456543
5575.595498	0.097804	0.061881	6927.697754
5575.596448	0.097734	0.061881	7020.545410
5575.597348	0.097705	0.061881	7108.479980
5575.598252	0.097621	0.061881	7196.729004
5575.599136	0.097650	0.061881	7283.051758
5575.600084	0.097764	0.061881	7375.731934
5575.600991	0.097756	0.061881	7464.396973
5576.683992	0.964915	0.073402	429.386993
5576.684893	1.427355	0.073402	1715.433594
5576.685802	1.432562	0.073402	3017.632812
5576.686746	1.400314	0.073402	4339.528809
5576.687656	1.366359	0.073402	5582.915039
5576.688567	1.031030	0.073402	6522.183594
5576.689501	0.144470	0.073402	6657.118652
5576.690410	0.097661	0.073402	6745.892578
5576.691314	0.097756	0.073402	6834.264160
5576.692202	0.097676	0.073402	6921.000488
5576.693149	0.097738	0.073402	7013.558594
5576.694054	0.097811	0.073402	7102.077637
5576.694948	0.097614	0.073402	7189.344238
5576.695868	0.097727	0.073402	7279.252930
5576.696784	0.097797	0.073402	7368.834473
5576.697685	0.097646	0.073402	7456.813965
5577.685965	0.954932	0.058425	421.124878
5577.686933	1.428439	0.058425	1803.853638
5577.687838	1.431412	0.058425	3099.281738
5577.688757	1.398596	0.058425	4384.591797
5577.689665	1.365033	0.058425	5624.041504
5577.690632	0.942133	0.058425	6535.083984
5577.691527	0.130942	0.058425	6652.277344
5577.692418	0.097548	0.058425	6739.192383
5577.693332	0.097657	0.058425	6828.451172
5577.694246	0.097668	0.058425	6917.720215
5577.695136	0.097646	0.058425	7004.625488
5577.696023	0.097643	0.058425	7091.234863
5577.696964	0.097764	0.058425	7183.230469
5577.697863	0.097731	0.058425	7271.090332
5577.698774	0.097668	0.058425	7360.066406
5577.699671	0.097625	0.058425	7447.635742
5578.737105	0.962153	0.074454	423.347473
5578.738017	1.427750	0.074454	1725.455566
5578.738922	1.432617	0.074454	3021.974121
5578.739882	1.399479	0.074454	4365.473633
5578.740798	1.365780	0.074454	5616.528320
5578.741702	1.013639	0.074454	6532.857910
5578.742645	0.140911	0.074454	6665.736816
5578.743547	0.097650	0.074454	6753.817383
5578.744440	0.097716	0.074454	6841.077637
5578.745329	0.097764	0.074454	6927.989746
5578.746269	0.097723	0.074454	7019.849609
5578.747180	0.097698	0.074454	7108.852051
5578.748077	0.097727	0.074454	7196.513184
5578.749001	0.097778	0.074454	7286.860352
5578.749918	0.097804	0.074454	7376.546387
5578.750828	0.097731	0.074454	7465.481445
5579.756551	0.988008	0.066030	494.003906
5579.757465	1.432247	0.066030	1803.077881
5579.758402	1.430284	0.066030	3143.254395
5579.759297	1.398519	0.066030	4394.929199
5579.760254	1.363356	0.066030	5699.660645
5579.761178	0.907939	0.066030	6538.596680
5579.762095	0.124160	0.066030	6652.451660
5579.762981	0.097577	0.066030	6738.904785
5579.763932	0.097581	0.066030	6831.704102
5579.764825	0.097654	0.066030	6918.909180
5579.765716	0.097654	0.066030	7005.918945
5579.766649	0.097690	0.066030	7097.063965
5579.767554	0.097643	0.066030	7185.430664
5579.768474	0.097742	0.066030	7275.353027
5579.769369	0.097610	0.066030	7362.713867
5579.770323	0.097639	0.066030	7455.861816
5580.818375	0.951299	0.060318	415.717560
5580.819340	1.431251	0.060318	1796.874878
5580.820257	1.431255	0.060318	3109.335449
5580.821165	1.399175	0.060318	4379.786133
5580.822088	1.365359	0.060318	5640.012207
5580.823036	0.951497	0.060318	6542.031250
5580.823942	0.131093	0.060318	6660.801270
5580.824840	0.097592	0.060318	6748.438477
5580.825786	0.097819	0.060318	6840.975098
5580.826685	0.097723	0.060318	6928.828613
5580.827583	0.097679	0.060318	7016.544922
5580.828465	0.097676	0.060318	7102.694824
5580.829403	0.097786	0.060318	7194.417969
5580.830317	0.097687	0.060318	7283.703613
5580.831215	0.097720	0.060318	7371.456055
5580.832127	0.097679	0.060318	7460.539551
5581.807573	0.963043	0.071118	428.554230
5581.808474	1.427172	0.071118	1714.435913
5581.809370	1.432932	0.071118	2998.343018
5581.810337	1.399764	0.071118	4351.915039
5581.811243	1.366223	0.071118	5589.712891
5581.812143	1.039651	0.071118	6525.398926
5581.813082	0.148579	0.071118	6664.914551
5581.813992	0.097529	0.071118	6753.666016
5581.814916	0.097705	0.071118	6843.945312
5581.815809	0.097738	0.071118	6931.225586
5581.816753	0.097723	0.071118	7023.476562
5581.817652	0.097665	0.071118	7111.277344
5581.818569	0.097727	0.071118	7200.893066
5581.819463	0.097709	0.071118	7288.244629
5581.820426	0.097690	0.071118	7382.320312
5581.821327	0.097709	0.071118	7470.355957
5582.907343	0.957660	0.059432	422.328003
5582.908239	1.426318	0.059432	1700.309204
5582.909183	1.432288	0.059432	3052.388672
5582.910110	1.399731	0.059432	4349.939453
5582.911018	1.366245	0.059432	5590.490234
5582.911956	0.994761	0.059432	6523.575684
5582.912865	0.140109	0.059432	6650.934570
5582.913770	0.097599	0.059432	6739.261719
5582.914660	0.097646	0.059432	6826.166992
5582.915612	0.097804	0.059432	6919.276367
5582.916518	0.097749	0.059432	7007.836914
5582.917414	0.097625	0.059432	7095.308594
5582.918303	0.097665	0.059432	7182.132812
5582.919249	0.097760	0.059432	7274.613770
5582.920159	0.097723	0.059432	7363.541992
5582.921054	0.097738	0.059432	7451.017578
5583.860688	0.955400	0.072883	420.376160
5583.861584	1.426234	0.072883	1698.281982
5583.862541	1.432262	0.072883	3068.956787
5583.863460	1.399662	0.072883	4355.246094
5583.864354	1.366300	0.072883	5576.718262
5583.865302	0.998529	0.072883	6523.323730
5583.866210	0.139662	0.072883	6650.136719
5583.867118	0.097595	0.072883	6738.752930
5583.868007	0.097738	0.072883	6825.642090
5583.868956	0.097775	0.072883	6918.430176
5583.869859	0.097764	0.072883	7006.710937
5583.870764	0.097778	0.072883	7095.200195
5583.871651	0.097683	0.072883	7181.845215
5583.872600	0.097767	0.072883	7274.626465
5583.873507	0.097701	0.072883	7363.241699
5583.874397	0.097643	0.072883	7450.144043
5584.986093	0.997716	0.058647	471.919708
5584.987000	1.429512	0.058647	1768.486816
5584.987896	1.432350	0.058647	3051.872314
5584.988859	1.398717	0.058647	4398.836914
5584.989765	1.365344	0.058647	5635.838867
5584.990677	0.997841	0.058647	6545.869629
5584.991562	0.143306	0.058647	6672.695312
5584.992501	0.097555	0.058647	6764.299316
5584.993407	0.097636	0.058647	6852.756836
5584.994302	0.097720	0.058647	6940.215820
5584.995226	0.097778	0.058647	7030.562988
5584.996132	0.097753	0.058647	7119.126953
5584.997039	0.097705	0.058647	7207.745605
5584.997929	0.097646	0.058647	7294.650879
5584.998888	0.097650	0.058647	7388.297363
5584.999785	0.097756	0.058647	7475.984863
5585.924557	0.956049	0.069753	420.661346
5585.925529	1.431570	0.069753	1812.147217
5585.926451	1.430804	0.069753	3131.348877
5585.927351	1.398717	0.069753	4390.194336
5585.928274	1.364612	0.069753	5649.730957
5585.929216	0.947366	0.069753	6542.149414
5585.930121	0.130814	0.069753	6660.536133
5585.931019	0.097562	0.069753	6748.146973
5585.931949	0.097668	0.069753	6838.978516
5585.932861	0.097775	0.069753	6928.148926
5585.933767	0.097657	0.069753	7016.626465
5585.934652	0.097698	0.069753	7103.088867
5585.935595	0.097753	0.069753	7195.269531
5585.936507	0.097712	0.069753	7284.383301
5585.937396	0.097767	0.069753	7371.298340
5585.938307	0.097712	0.069753	7460.314453
5587.055051	0.954624	0.066172	417.170685
5587.056001	1.428739	0.066172	1774.472778
5587.056918	1.431460	0.066172	3087.121582
5587.057848	1.398838	0.066172	4388.041016
5587.058749	1.365374	0.066172	5618.242676
5587.059715	0.947798	0.066172	6533.815430
5587.060605	0.133740	0.066172	6652.844238
5587.061495	0.097577	0.066172	6739.687500
5587.062431	0.097738	0.066172	6831.170410
5587.063346	0.097705	0.066172	6920.570312
5587.064249	0.097720	0.066172	7008.811035
5587.065142	0.097738	0.066172	7096.091309
5587.066074	0.097808	0.066172	7187.248047
5587.066984	0.097690	0.066172	7276.146484
5587.067903	0.097672	0.066172	7365.907227
5587.068792	0.097742	0.066172	7452.799805
5587.995606	0.969229	0.061438	433.245148
5587.996574	1.431632	0.061438	1819.064941
5587.997475	1.431335	0.061438	3108.698242
5587.998370	1.399962	0.061438	4361.664551
5587.999322	1.364993	0.061438	5661.137695
5588.000237	0.964948	0.061438	6544.064453
5588.001156	0.131627	0.061438	6665.029785
5588.002056	0.097581	0.061438	6752.852539
5588.003007	0.097639	0.061438	6845.707520
5588.003910	0.097657	0.061438	6933.892090
5588.004801	0.097698	0.061438	7020.940918
5588.005729	0.097679	0.061438	7111.587402
5588.006635	0.097625	0.061438	7200.035156
5588.007531	0.097657	0.061438	7287.536133
5588.008417	0.097617	0.061438	7374.024902
5588.009368	0.097712	0.061438	7466.949219
5589.120971	0.952657	0.063847	419.169281
5589.121869	1.426146	0.063847	1699.848633
5589.122849	1.431288	0.063847	3102.510742
5589.123758	1.399032	0.063847	4374.230957
5589.124653	1.366011	0.063847	5596.810547
5589.125621	0.963552	0.063847	6529.529297
5589.126527	0.133660	0.063847	6650.625000
5589.127426	0.097566	0.063847	6738.336914
5589.128316	0.097716	0.063847	6825.304199
5589.129256	0.097654	0.063847	6917.098633
5589.130150	0.097628	0.063847	7004.378418
5589.131044	0.097694	0.063847	7091.716797
5589.131978	0.097756	0.063847	7183.020996
5589.132894	0.097727	0.063847	7272.539062
5589.133794	0.097727	0.063847	7360.493164
5589.134682	0.097723	0.063847	7447.271484
5590.067148	0.954313	0.063601	420.851929
5590.068041	1.425743	0.063601	1694.040894
5590.069003	1.431376	0.063601	3071.024414
5590.069917	1.399552	0.063601	4350.214844
5590.070812	1.366626	0.063601	5573.344727
5590.071768	0.993446	0.063601	6523.079102
5590.072690	0.136644	0.063601	6649.064941
5590.073591	0.097584	0.063601	6736.988281
5590.074480	0.097709	0.063601	6823.851562
5590.075438	0.097775	0.063601	6917.519531
5590.076350	0.097709	0.063601	7006.629883
5590.077248	0.097745	0.063601	7094.405273
5590.078135	0.097808	0.063601	7181.160645
5590.079066	0.097767	0.063601	7272.182129
5590.079966	0.097753	0.063601	7360.159668
5590.080854	0.097705	0.063601	7446.921875
5591.188473	0.994189	0.065716	484.170258
5591.189399	1.431350	0.065716	1809.600464
5591.190299	1.431537	0.065716	3097.983643
5591.191194	1.399581	0.065716	4350.608887
5591.192141	1.365051	0.065716	5643.312500
5591.193049	0.990443	0.065716	6542.634766
5591.193938	0.141299	0.065716	6668.249512
5591.194861	0.097639	0.065716	6758.370605
5591.195786	0.097712	0.065716	6848.754395
5591.196691	0.097760	0.065716	6937.227051
5591.197582	0.097756	0.065716	7024.328125
5591.198534	0.097866	0.065716	7117.496582
5591.199438	0.097745	0.065716	7205.858398
5591.200329	0.097789	0.065716	7292.988770
5591.201265	0.097797	0.065716	7384.526367
5591.202169	0.097844	0.065716	7472.977539
5592.137161	0.947227	0.062836	412.990784
5592.138113	1.429713	0.062836	1774.077637
5592.139032	1.431830	0.062836	3089.929199
5592.139931	1.399706	0.062836	4348.264648
5592.140830	1.366003	0.062836	5576.301758
5592.141803	0.975362	0.062836	6525.329590
5592.142706	0.136051	0.062836	6648.183594
5592.143603	0.097537	0.062836	6735.673828
5592.144523	0.097767	0.062836	6825.619629
5592.145435	0.097764	0.062836	6914.780273
5592.146336	0.097676	0.062836	7002.786133
5592.147222	0.097628	0.062836	7089.284668
5592.148165	0.097815	0.062836	7181.523926
5592.149070	0.097775	0.062836	7270.009766
5592.149968	0.097665	0.062836	7357.712891
5592.150863	0.097610	0.062836	7445.073730
5593.258980	0.973898	0.066929	442.149567
5593.259880	1.428182	0.066929	1727.513672
5593.260781	1.432324	0.066929	3018.037598
5593.261738	1.399274	0.066929	4357.142578
5593.262653	1.365842	0.066929	5606.888184
5593.263564	1.013262	0.066929	6529.969727
5593.264497	0.140790	0.066929	6661.326660
5593.265407	0.097668	0.066929	6750.205078
5593.266313	0.097665	0.066929	6838.689453
5593.267202	0.097731	0.066929	6925.572266
5593.268141	0.097738	0.066929	7017.348145
5593.269050	0.097756	0.066929	7106.208496
5593.269937	0.097709	0.066929	7192.875977
5593.270849	0.097745	0.066929	7282.019531
5593.271780	0.097793	0.066929	7373.064941
5593.272693	0.097650	0.066929	7462.219727
5594.203595	0.946849	0.062973	413.773163
5594.204547	1.430219	0.062973	1775.341309
5594.205467	1.431555	0.062973	3092.372070
5594.206380	1.399124	0.062973	4369.771973
5594.207273	1.365828	0.062973	5589.456055
5594.208234	0.978193	0.062973	6529.500000
5594.209139	0.137161	0.062973	6653.630371
5594.210034	0.097573	0.062973	6740.958496
5594.210968	0.097844	0.062973	6832.345215
5594.211866	0.097800	0.062973	6920.169922
5594.212761	0.097687	0.062973	7007.599609
5594.213650	0.097709	0.062973	7094.462891
5594.214589	0.097822	0.062973	7186.317871
5594.215497	0.097800	0.062973	7275.120605
5594.216398	0.097830	0.062973	7363.265137
5594.217287	0.097698	0.062973	7450.118652
5595.329996	0.952745	0.062594	416.349731
5595.330952	1.427937	0.062594	1781.457520
5595.331862	1.431460	0.062594	3084.085937
5595.332776	1.399504	0.062594	4363.232910
5595.333678	1.366000	0.062594	5595.364746
5595.334635	0.973440	0.062594	6526.946777
5595.335550	0.134092	0.062594	6649.640625
5595.336447	0.097661	0.062594	6737.242676
5595.337369	0.097800	0.062594	6827.414551
5595.338284	0.097808	0.062594	6916.908691
5595.339192	0.097771	0.062594	7005.684570
5595.340086	0.097712	0.062594	7093.039551
5595.341022	0.097859	0.062594	7184.635254
5595.341921	0.097778	0.062594	7272.538086
5595.342828	0.097676	0.062594	7361.129883
5595.343715	0.097709	0.062594	7447.797363
5596.272095	0.968218	0.066341	436.666199
5596.272992	1.427406	0.066341	1717.049316
5596.273918	1.432698	0.066341	3043.727539
5596.274842	1.399922	0.066341	4337.255371
5596.275751	1.366388	0.066341	5579.301758
5596.276650	1.046935	0.066341	6520.496094
5596.277583	0.147041	0.066341	6657.685547
5596.278492	0.097621	0.066341	6746.422852
5596.279390	0.097738	0.066341	6834.191406
5596.280279	0.097701	0.066341	6921.047852
5596.281238	0.097800	0.066341	7014.838379
5596.282141	0.097657	0.066341	7103.022949
5596.283032	0.097716	0.066341	7190.087891
5596.283950	0.097690	0.066341	7279.767578
5596.284861	0.097782	0.066341	7368.847168
5596.285765	0.097712	0.066341	7457.179199
5597.400015	0.950936	0.061764	417.461029
5597.400972	1.430098	0.061764	1786.064453
5597.401886	1.431530	0.061764	3094.482422
5597.402787	1.399515	0.061764	4355.445801
5597.403679	1.366091	0.061764	5573.999023
5597.404644	0.985990	0.061764	6525.479492
5597.405551	0.137761	0.061764	6650.428711
5597.406450	0.097562	0.061764	6738.137207
5597.407387	0.097775	0.061764	6829.751953
5597.408286	0.097731	0.061764	6917.611816
5597.409191	0.097745	0.061764	7006.071289
5597.410081	0.097764	0.061764	7093.081055
5597.411016	0.097786	0.061764	7184.510742
5597.411918	0.097723	0.061764	7272.657227
5597.412814	0.097646	0.061764	7360.148437
5597.413706	0.097683	0.061764	7447.281738
5598.344174	0.996826	0.068544	470.501923
5598.345098	1.430552	0.068544	1792.331787
5598.346010	1.431431	0.068544	3097.796631
5598.346902	1.399255	0.068544	4345.932617
5598.347868	1.364645	0.068544	5664.179687
5598.348802	0.949526	0.068544	6551.037109
5598.349692	0.133865	0.068544	6670.176758
5598.350620	0.097683	0.068544	6760.826660
5598.351528	0.097778	0.068544	6849.609375
5598.352432	0.097646	0.068544	6937.881836
5598.353319	0.097738	0.068544	7024.575684
5598.354262	0.097841	0.068544	7116.839355
5598.355165	0.097800	0.068544	7205.152832
5598.356066	0.097694	0.068544	7293.175293
5598.356964	0.097789	0.068544	7380.990234
5598.357896	0.097786	0.068544	7472.126465
5599.460825	0.964676	0.060814	429.281006
5599.461748	1.427893	0.060814	1747.226318
5599.462647	1.432614	0.060814	3035.145996
5599.463568	1.400109	0.060814	4324.645996
5599.464503	1.365868	0.060814	5601.732422
5599.465427	1.004597	0.060814	6529.980469
5599.466326	0.143035	0.060814	6658.568848
5599.467263	0.097639	0.060814	6750.056641
5599.468170	0.097815	0.060814	6838.774902
5599.469073	0.097731	0.060814	6927.025879
5599.469962	0.097676	0.060814	7013.859863
5599.470907	0.097833	0.060814	7106.312500
5599.471815	0.097705	0.060814	7195.028809
5599.472705	0.097778	0.060814	7282.051758
5599.473627	0.097756	0.060814	7372.183105
5599.474555	0.097745	0.060814	7462.890625
5600.425939	0.954430	0.068274	418.994720
5600.426875	1.426846	0.068274	1754.522339
5600.427794	1.432255	0.068274	3070.764404
5600.428706	1.399373	0.068274	4346.992187
5600.429612	1.366190	0.068274	5584.760742
5600.430562	0.989081	0.068274	6524.387695
5600.431468	0.138029	0.068274	6649.441406
5600.432372	0.097551	0.068274	6737.627930
5600.433261	0.097694	0.068274	6824.478027
5600.434210	0.097852	0.068274	6917.339355
5600.435116	0.097705	0.068274	7005.860352
5600.436007	0.097738	0.068274	7092.944824
5600.436950	0.097786	0.068274	7185.156738
5600.437849	0.097841	0.068274	7273.115234
5600.438740	0.097683	0.068274	7360.150879
5600.439627	0.097815	0.068274	7446.912598
5601.514450	0.954657	0.064407	419.094391
5601.515349	1.426212	0.064407	1701.259155
5601.516244	1.433650	0.064407	2984.375977
5601.517189	1.400881	0.064407	4308.208984
5601.518106	1.367153	0.064407	5561.888672
5601.519022	1.050743	0.064407	6524.369629
5601.519908	0.155874	0.064407	6662.474121
5601.520855	0.097679	0.064407	6754.976562
5601.521760	0.097731	0.064407	6843.422852
5601.522653	0.097636	0.064407	6930.611328
5601.523591	0.097811	0.064407	7022.358398
5601.524488	0.097782	0.064407	7110.068848
5601.525392	0.097687	0.064407	7198.377930
5601.526282	0.097657	0.064407	7285.292969
5601.527224	0.097767	0.064407	7377.389648
5601.528126	0.097800	0.064407	7465.605469
5602.510794	0.949003	0.066006	416.612213
5602.511761	1.430479	0.066006	1799.885010
5602.512662	1.431347	0.066006	3089.528320
5602.513559	1.399838	0.066006	4345.182617
5602.514502	1.365260	0.066006	5632.623047
5602.515424	0.972982	0.066006	6529.712891
5602.516356	0.130825	0.066006	6651.642090
5602.517246	0.097537	0.066006	6738.449707
5602.518205	0.097727	0.066006	6832.169922
5602.519104	0.097650	0.066006	6919.957520
5602.519994	0.097679	0.066006	7006.892090
5602.520937	0.097753	0.066006	7099.072754
5602.521845	0.097720	0.066006	7187.802246
5602.522741	0.097760	0.066006	7275.395020
5602.523631	0.097731	0.066006	7362.375488
5602.524572	0.097866	0.066006	7454.467773
5603.570661	0.974886	0.069797	440.648651
5603.571589	1.428853	0.069797	1766.623901
5603.572486	1.432181	0.069797	3051.290527
5603.573423	1.399706	0.069797	4362.814941
5603.574329	1.365688	0.069797	5600.128906
5603.575248	1.013232	0.069797	6531.289551
5603.576139	0.147070	0.069797	6662.329102
5603.577081	0.097646	0.069797	6754.312012
5603.577994	0.097668	0.069797	6843.483398
5603.578893	0.097683	0.069797	6931.300293
5603.579801	0.097749	0.069797	7020.056641
5603.580731	0.097701	0.069797	7110.918945
5603.581641	0.097646	0.069797	7199.777344
5603.582530	0.097705	0.069797	7286.637207
5603.583473	0.097778	0.069797	7378.842285
5603.584372	0.097712	0.069797	7466.685547
5604.587016	0.987191	0.062127	492.608398
5604.587935	1.431742	0.062127	1808.379272
5604.588836	1.431057	0.062127	3097.761719
5604.589767	1.398435	0.062127	4399.705078
5604.590675	1.364590	0.062127	5638.752930
5604.591595	0.966925	0.062127	6528.324219
5604.592491	0.136022	0.062127	6650.199707
5604.593426	0.097610	0.062127	6741.464844
5604.594337	0.097775	0.062127	6830.537598
5604.595240	0.097632	0.062127	6918.699219
5604.596126	0.097727	0.062127	7005.285156
5604.597077	0.097859	0.062127	7098.349121
5604.597984	0.097800	0.062127	7187.054199
5604.598877	0.097782	0.062127	7274.373535
5604.599813	0.097778	0.062127	7365.894043
5604.600715	0.097698	0.062127	7454.017578
5605.642199	0.959495	0.071118	425.056122
5605.643099	1.427084	0.071118	1709.431519
5605.644045	1.432170	0.071118	3064.264648
5605.644966	1.399482	0.071118	4353.187988
5605.645888	1.365798	0.071118	5612.454102
5605.646800	1.004912	0.071118	6528.934082
5605.647752	0.131396	0.071118	6654.023437
5605.648666	0.097548	0.071118	6743.182129
5605.649557	0.097800	0.071118	6830.322266
5605.650466	0.097738	0.071118	6919.166016
5605.651406	0.097800	0.071118	7011.098145
5605.652298	0.097672	0.071118	7098.221680
5605.653193	0.097822	0.071118	7185.772461
5605.654130	0.097815	0.071118	7277.425293
5605.655036	0.097723	0.071118	7365.962891
5605.655952	0.097705	0.071118	7455.460937
5606.643209	1.016730	0.060483	508.364868
5606.644139	1.433320	0.060483	1841.352783
5606.645046	1.430731	0.060483	3139.025879
5606.645944	1.398062	0.060483	4394.485352
5606.646915	1.363026	0.060483	5717.983887
5606.647839	0.915527	0.060483	6563.931152
5606.648732	0.127815	0.060483	6678.069824
5606.649674	0.097643	0.060483	6770.049316
5606.650576	0.097808	0.060483	6858.271973
5606.651472	0.097782	0.060483	6945.884766
5606.652360	0.097665	0.060483	7032.611328
5606.653293	0.097789	0.060483	7123.848633
5606.654199	0.097811	0.060483	7212.465820
5606.655104	0.097727	0.060483	7300.908691
5606.655992	0.097654	0.060483	7387.625488
5606.656933	0.097819	0.060483	7479.672852
5607.730663	0.984521	0.070248	450.910828
5607.731563	1.427820	0.070248	1735.948730
5607.732457	1.432954	0.070248	3017.009766
5607.733410	1.400314	0.070248	4351.508789
5607.734323	1.366212	0.070248	5598.860352
5607.735231	1.027639	0.070248	6531.956543
5607.736121	0.150443	0.070248	6665.851074
5607.737059	0.097606	0.070248	6757.405762
5607.737975	0.097723	0.070248	6846.920410
5607.738881	0.097676	0.070248	6935.414551
5607.739775	0.097709	0.070248	7022.766113
5607.740726	0.097753	0.070248	7115.729004
5607.741624	0.097712	0.070248	7203.474609
5607.742510	0.097690	0.070248	7290.028320
5607.743452	0.097723	0.070248	7382.083984
5607.744357	0.097683	0.070248	7470.487305
5608.691663	0.956763	0.062925	422.889130
5608.692555	1.426025	0.062925	1694.903809
5608.693512	1.432181	0.062925	3065.501465
5608.694432	1.399625	0.062925	4353.156738
5608.695326	1.366571	0.062925	5574.871094
5608.696283	0.994768	0.062925	6526.864258
5608.697186	0.140024	0.062925	6653.306152
5608.698091	0.097522	0.062925	6741.563477
5608.698982	0.097614	0.062925	6828.537109
5608.699921	0.097833	0.062925	6920.402344
5608.700829	0.097778	0.062925	7009.185059
5608.701729	0.097628	0.062925	7097.050293
5608.702637	0.097745	0.062925	7185.803223
5608.703563	0.097753	0.062925	7276.322266
5608.704475	0.097636	0.062925	7365.365723
5608.705367	0.097650	0.062925	7452.469727
5609.815505	0.958997	0.060488	427.712494
5609.816476	1.431313	0.060488	1817.517822
5609.817393	1.430720	0.060488	3129.488281
5609.818288	1.398790	0.060488	4381.405762
5609.819204	1.365121	0.060488	5631.856445
5609.820152	0.952507	0.060488	6534.833496
5609.821065	0.130518	0.060488	6653.996094
5609.821962	0.097493	0.060488	6741.447266
5609.822890	0.097749	0.060488	6832.158203
5609.823795	0.097705	0.060488	6920.581055
5609.824702	0.097690	0.060488	7009.186035
5609.825590	0.097723	0.060488	7095.964355
5609.826534	0.097665	0.060488	7188.160156
5609.827441	0.097690	0.060488	7276.765137
5609.828329	0.097643	0.060488	7363.472168
5609.829253	0.097716	0.060488	7453.761719
5610.757075	0.962369	0.069463	426.329620
5610.757983	1.427047	0.069463	1722.088379
5610.758879	1.432793	0.069463	3005.870850
5610.759841	1.399490	0.069463	4352.180176
5610.760754	1.366047	0.069463	5599.381348
5610.761668	1.019004	0.069463	6530.750977
5610.762605	0.144591	0.069463	6666.232910
5610.763510	0.097654	0.069463	6754.609375
5610.764413	0.097723	0.069463	6842.853516
5610.765301	0.097668	0.069463	6929.583008
5610.766237	0.097738	0.069463	7021.065918
5610.767137	0.097723	0.069463	7109.017090
5610.768048	0.097705	0.069463	7198.026367
5610.768939	0.097690	0.069463	7285.068359
5610.769897	0.097712	0.069463	7378.676758
5610.770808	0.097657	0.069463	7467.642578
5611.875848	0.986887	0.064254	492.456726
5611.876764	1.432185	0.064254	1804.338135
5611.877671	1.431094	0.064254	3102.340332
5611.878567	1.399182	0.064254	4356.007324
5611.879525	1.364070	0.064254	5662.786133
5611.880439	0.953097	0.064254	6533.916992
5611.881339	0.133147	0.064254	6653.749023
5611.882224	0.097603	0.064254	6740.127441
5611.883166	0.097760	0.064254	6832.217285
5611.884069	0.097709	0.064254	6920.448242
5611.884964	0.097701	0.064254	7007.891113
5611.885894	0.097925	0.064254	7098.960937
5611.886803	0.097786	0.064254	7187.848145
5611.887703	0.097650	0.064254	7275.733398
5611.888593	0.097767	0.064254	7362.746094
5611.889546	0.097738	0.064254	7455.890625
5612.843989	0.964797	0.069201	432.229248
5612.844887	1.427230	0.069201	1713.881958
5612.845829	1.432189	0.069201	3063.003906
5612.846742	1.399900	0.069201	4341.112305
5612.847649	1.366329	0.069201	5580.373047
5612.848547	1.047847	0.069201	6521.339355
5612.849500	0.140358	0.069201	6655.100098
5612.850407	0.097599	0.069201	6743.622070
5612.851303	0.097745	0.069201	6831.202148
5612.852208	0.097764	0.069201	6919.678223
5612.853121	0.097778	0.069201	7008.949707
5612.854030	0.097657	0.069201	7097.720215
5612.854927	0.097690	0.069201	7185.348633
5612.855860	0.097771	0.069201	7276.568848
5612.856769	0.097731	0.069201	7365.406250
5612.857671	0.097643	0.069201	7453.479980
5613.923291	0.971184	0.065603	437.032837
5613.924195	1.427216	0.065603	1727.235718
5613.925088	1.433126	0.065603	3007.017578
5613.926056	1.399534	0.065603	4361.766113
5613.926975	1.365890	0.065603	5617.019043
5613.927880	1.017891	0.065603	6538.209961
5613.928797	0.146378	0.065603	6672.438965
5613.929712	0.097665	0.065603	6761.802246
5613.930623	0.097797	0.065603	6850.895020
5613.931519	0.097705	0.065603	6938.438965
5613.932457	0.097712	0.065603	7030.093262
5613.933372	0.097756	0.065603	7119.540527
5613.934273	0.097731	0.065603	7207.595703
5613.935162	0.097731	0.065603	7294.478516
5613.936117	0.097734	0.065603	7387.814941
5613.937023	0.097775	0.065603	7476.398926
5614.930404	0.976575	0.062675	445.318085
5614.931299	1.427508	0.062675	1722.938232
5614.932276	1.431226	0.062675	3121.245605
5614.933189	1.398490	0.062675	4398.066895
5614.934094	1.365004	0.062675	5633.395508
5614.934991	1.002239	0.062675	6532.403809
5614.935928	0.134103	0.062675	6658.058105
5614.936835	0.097628	0.062675	6746.606934
5614.937733	0.097716	0.062675	6834.355957
5614.938636	0.097720	0.062675	6922.596680
5614.939565	0.097753	0.062675	7013.408691
5614.940477	0.097716	0.062675	7102.525879
5614.941364	0.097701	0.062675	7189.187012
5614.942305	0.097753	0.062675	7281.172363
5614.943215	0.097837	0.062675	7370.204102
5614.944106	0.097690	0.062675	7457.246094
5615.983054	0.955569	0.069761	420.450287
5615.983960	1.426531	0.069761	1712.887207
5615.984856	1.433254	0.069761	2997.083008
5615.985819	1.399904	0.069761	4345.189941
5615.986732	1.366044	0.069761	5592.387695
5615.987647	1.026808	0.069761	6531.916992
5615.988554	0.148235	0.069761	6666.366211
5615.989486	0.097679	0.069761	6757.403320
5615.990396	0.097643	0.069761	6846.258301
5615.991294	0.097709	0.069761	6934.000977
5615.992227	0.097793	0.069761	7025.241699
5615.993139	0.097775	0.069761	7114.412109
5615.994050	0.097712	0.069761	7203.428223
5615.994941	0.097756	0.069761	7290.529297
5615.995883	0.097738	0.069761	7382.598633
5615.996791	0.097712	0.069761	7471.321289
5616.998912	1.016949	0.060737	499.322174
5616.999833	1.431811	0.060737	1818.020508
5617.000745	1.430911	0.060737	3123.010986
5617.001644	1.398527	0.060737	4380.286621
5617.002602	1.363953	0.060737	5686.953125
5617.003530	0.940034	0.060737	6559.304687
5617.004425	0.130518	0.060737	6676.117676
5617.005357	0.097646	0.060737	6767.124023
5617.006258	0.097749	0.060737	6855.195801
5617.007159	0.097753	0.060737	6943.270996
5617.008046	0.097775	0.060737	7029.997070
5617.009001	0.097881	0.060737	7123.473145
5617.009902	0.097800	0.060737	7211.591309
5617.010803	0.097712	0.060737	7299.630371
5617.011686	0.097712	0.060737	7385.910645
5617.012628	0.097874	0.060737	7478.107422
5618.061820	0.973359	0.070917	474.999359
5618.062742	1.430815	0.070917	1794.211182
5618.063648	1.431006	0.070917	3090.702637
5618.064542	1.399471	0.070917	4341.830078
5618.065493	1.364304	0.070917	5639.283203
5618.066416	0.962882	0.070917	6528.023437
5618.067320	0.133934	0.070917	6649.100098
5618.068209	0.097577	0.070917	6735.846191
5618.069177	0.097793	0.070917	6830.509766
5618.070093	0.097753	0.070917	6920.051270
5618.070988	0.097690	0.070917	7007.484375
5618.071914	0.097738	0.070917	7097.989746
5618.072819	0.097753	0.070917	7186.456055
5618.073715	0.097643	0.070917	7273.943848
5618.074599	0.097701	0.070917	7360.312012
5618.075543	0.097753	0.070917	7452.590332
5619.054036	0.956898	0.060475	421.035187
5619.054936	1.426333	0.060475	1704.734863
5619.055888	1.432028	0.060475	3068.025146
5619.056811	1.399215	0.060475	4359.500488
5619.057704	1.366208	0.060475	5579.524414
5619.058649	0.997372	0.060475	6522.041016
5619.059555	0.140105	0.060475	6648.976074
5619.060457	0.097533	0.060475	6736.950684
5619.061347	0.097716	0.060475	6823.917969
5619.062308	0.097760	0.060475	6917.865234
5619.063214	0.097668	0.060475	7006.353027
5619.064112	0.097705	0.060475	7094.092285
5619.065040	0.097742	0.060475	7184.796387
5619.065943	0.097793	0.060475	7273.103516
5619.066846	0.097643	0.060475	7361.274902
5619.067733	0.097734	0.060475	7447.965332
5620.146127	0.959945	0.068766	426.215576
5620.147035	1.427186	0.068766	1722.100708
5620.147927	1.432874	0.068766	3000.224121
5620.148886	1.399951	0.068766	4342.777344
5620.149798	1.366304	0.068766	5588.846191
5620.150706	1.033235	0.068766	6527.023437
5620.151657	0.148063	0.068766	6667.831055
5620.152563	0.097668	0.068766	6756.318848
5620.153470	0.097643	0.068766	6844.880859
5620.154361	0.097749	0.068766	6931.975098
5620.155289	0.097778	0.068766	7022.713379
5620.156195	0.097676	0.068766	7111.207520
5620.157101	0.097683	0.068766	7199.708496
5620.157993	0.097701	0.068766	7286.858398
5620.158939	0.097830	0.068766	7379.405273
5620.159842	0.097643	0.068766	7467.576660
5621.108704	0.971213	0.062325	437.045990
5621.109631	1.428149	0.062325	1760.940430
5621.110524	1.432408	0.062325	3040.081055
5621.111451	1.400171	0.062325	4338.039551
5621.112377	1.365707	0.062325	5602.684082
5621.113303	1.003498	0.062325	6531.923828
5621.114196	0.143441	0.062325	6660.016602
5621.115131	0.097628	0.062325	6751.298828
5621.116039	0.097716	0.062325	6840.024902
5621.116945	0.097712	0.062325	6928.552246
5621.117832	0.097687	0.062325	7015.200195
5621.118766	0.097756	0.062325	7106.504395
5621.119677	0.097668	0.062325	7195.480469
5621.120567	0.097643	0.062325	7282.382812
5621.121498	0.097745	0.062325	7373.383789
5621.122402	0.097811	0.062325	7461.805176
5622.226399	0.975601	0.062457	441.947083
5622.227303	1.427721	0.062457	1732.606689
5622.228247	1.431537	0.062457	3083.977539
5622.229165	1.399156	0.062457	4368.403320
5622.230078	1.365315	0.062457	5614.936035
5622.230975	1.014873	0.062457	6525.277344
5622.231928	0.134517	0.062457	6653.471680
5622.232835	0.097603	0.062457	6741.997070
5622.233726	0.097683	0.062457	6829.032715
5622.234644	0.097727	0.062457	6918.746094
5622.235555	0.097727	0.062457	7007.775391
5622.236467	0.097687	0.062457	7096.865723
5622.237362	0.097698	0.062457	7184.305176
5622.238289	0.097767	0.062457	7274.935547
5622.239193	0.097822	0.062457	7363.366699
5622.240099	0.097727	0.062457	7451.907227
5623.170502	0.945139	0.065793	409.245270
5623.171456	1.426890	0.065793	1770.497925
5623.172367	1.431475	0.065793	3074.571289
5623.173274	1.399413	0.065793	4343.838867
5623.174171	1.366344	0.065793	5569.449219
5623.175124	1.001429	0.065793	6523.811523
5623.176037	0.139058	0.065793	6650.770996
5623.176938	0.097621	0.065793	6738.727539
5623.177847	0.097650	0.065793	6827.491699
5623.178770	0.097738	0.065793	6917.704102
5623.179678	0.097599	0.065793	7006.323730
5623.180572	0.097672	0.065793	7093.642578
5623.181496	0.097771	0.065793	7183.982910
5623.182404	0.097786	0.065793	7272.772461
5623.183301	0.097745	0.065793	7360.450195
5623.184190	0.097643	0.065793	7447.254883
5624.298466	0.968763	0.063871	434.006012
5624.299384	1.428453	0.063871	1745.326172
5624.300291	1.432013	0.063871	3044.161865
5624.301237	1.399380	0.063871	4367.975098
5624.302149	1.365359	0.063871	5613.182617
5624.303069	1.002927	0.063871	6535.875977
5624.303957	0.144324	0.063871	6664.035645
5624.304900	0.097643	0.063871	6756.112793
5624.305801	0.097720	0.063871	6844.158203
5624.306701	0.097753	0.063871	6932.135742
5624.307587	0.097749	0.063871	7018.741211
5624.308538	0.097778	0.063871	7111.728516
5624.309435	0.097632	0.063871	7199.304199
5624.310336	0.097676	0.063871	7287.310059
5624.311250	0.097679	0.063871	7376.588867
5624.312144	0.097668	0.063871	7463.904297
5625.241544	0.951006	0.063928	414.638550
5625.242510	1.426461	0.063928	1792.600098
5625.243429	1.430958	0.063928	3107.650879
5625.244322	1.399028	0.063928	4356.983398
5625.245254	1.364982	0.063928	5629.146484
5625.246199	0.953287	0.063928	6530.002930
5625.247101	0.132224	0.063928	6649.269043
5625.247990	0.097617	0.063928	6736.050781
5625.248920	0.097749	0.063928	6826.957520
5625.249846	0.097643	0.063928	6917.375000
5625.250759	0.097698	0.063928	7006.573242
5625.251650	0.097808	0.063928	7093.719727
5625.252604	0.097760	0.063928	7186.982910
5625.253498	0.097720	0.063928	7274.344238
5625.254384	0.097742	0.063928	7360.943359
5625.255313	0.097672	0.063928	7451.680664
5626.365383	0.964395	0.060665	423.369202
5626.366370	1.430654	0.060665	1835.425049
5626.367286	1.430116	0.060665	3145.411133
5626.368191	1.397534	0.060665	4410.179687
5626.369139	1.363118	0.060665	5702.415039
5626.370055	0.933860	0.060665	6557.830566
5626.370947	0.130122	0.060665	6673.899414
5626.371882	0.097603	0.060665	6765.157715
5626.372789	0.097731	0.060665	6853.799316
5626.373705	0.097753	0.060665	6943.340820
5626.374593	0.097738	0.060665	7030.132324
5626.375534	0.097716	0.060665	7122.083008
5626.376434	0.097687	0.060665	7210.000977
5626.377342	0.097614	0.060665	7298.634277
5626.378241	0.097687	0.060665	7386.454590
5626.379189	0.097738	0.060665	7479.110352
5627.314117	0.948014	0.067843	411.438049
5627.315062	1.426102	0.067843	1759.104736
5627.316001	1.431020	0.067843	3102.833008
5627.316913	1.398585	0.067843	4378.342773
5627.317811	1.365795	0.067843	5604.826172
5627.318786	0.944982	0.067843	6526.183594
5627.319692	0.130294	0.067843	6644.229980
5627.320611	0.097566	0.067843	6733.893066
5627.321500	0.097687	0.067843	6820.736816
5627.322444	0.097753	0.067843	6913.015137
5627.323336	0.097676	0.067843	7000.142090
5627.324220	0.097720	0.067843	7086.526367
5627.325150	0.097863	0.067843	7177.538574
5627.326051	0.097646	0.067843	7265.518066
5627.326973	0.097782	0.067843	7355.672852
5627.327868	0.097760	0.067843	7443.167969
5628.432850	0.952529	0.062687	420.065399
5628.433751	1.426212	0.062687	1705.082642
5628.434643	1.432980	0.062687	2983.300537
5628.435608	1.399830	0.062687	4334.136719
5628.436517	1.366220	0.062687	5576.030273
5628.437419	1.048671	0.062687	6521.931152
5628.438369	0.152113	0.062687	6666.438477
5628.439285	0.097500	0.062687	6755.748535
5628.440181	0.097683	0.062687	6843.272461
5628.441095	0.097745	0.062687	6932.611816
5628.442040	0.097723	0.062687	7024.960449
5628.442942	0.097734	0.062687	7113.116699
5628.443858	0.097628	0.062687	7202.543945
5628.444745	0.097712	0.062687	7289.214844
5628.445710	0.097617	0.062687	7383.415527
5628.446614	0.097716	0.062687	7471.750977
5629.383631	0.958231	0.066453	426.412872
5629.384524	1.425813	0.066453	1699.663818
5629.385515	1.430416	0.066453	3117.206299
5629.386425	1.398453	0.066453	4389.798828
5629.387322	1.365238	0.066453	5614.416992
5629.388292	0.941587	0.066453	6527.756348
5629.389204	0.130162	0.066453	6646.464355
5629.390116	0.097467	0.066453	6735.354492
5629.391012	0.097625	0.066453	6822.826172
5629.391942	0.097676	0.066453	6913.664551
5629.392852	0.097617	0.066453	7002.496094
5629.393746	0.097636	0.066453	7089.782227
5629.394681	0.097727	0.066453	7181.157227
5629.395591	0.097679	0.066453	7270.045410
5629.396486	0.097606	0.066453	7357.402832
5629.397374	0.097657	0.066453	7444.122559
5630.500863	1.013972	0.060431	498.874298
5630.501786	1.431808	0.060431	1820.432983
5630.502692	1.430944	0.060431	3116.867920
5630.503589	1.398494	0.060431	4371.316895
5630.504546	1.363927	0.060431	5676.595215
5630.505464	0.959158	0.060431	6557.102051
5630.506354	0.135297	0.060431	6677.516113
5630.507283	0.097614	0.060431	6768.199219
5630.508182	0.097727	0.060431	6856.055664
5630.509080	0.097668	0.060431	6943.761719
5630.509965	0.097705	0.060431	7030.230469
5630.510921	0.097793	0.060431	7123.720703
5630.511831	0.097782	0.060431	7212.702148
5630.512732	0.097731	0.060431	7300.757324
5630.513622	0.097698	0.060431	7387.708496
5630.514576	0.097731	0.060431	7480.943359
5631.452128	0.972037	0.068991	440.332916
5631.453023	1.427095	0.068991	1717.582642
5631.453973	1.431647	0.068991	3077.646973
5631.454881	1.399325	0.068991	4348.233887
5631.455797	1.365520	0.068991	5599.050293
5631.456701	1.021058	0.068991	6522.086914
5631.457638	0.137816	0.068991	6651.220703
5631.458547	0.097643	0.068991	6739.978027
5631.459447	0.097625	0.068991	6827.839844
5631.460351	0.097731	0.068991	6916.188477
5631.461278	0.097701	0.068991	7006.757812
5631.462185	0.097709	0.068991	7095.379883
5631.463074	0.097690	0.068991	7182.226562
5631.464020	0.097734	0.068991	7274.683105
5631.464919	0.097760	0.068991	7362.569336
5631.465825	0.097731	0.068991	7451.113281
5632.572868	0.947783	0.061080	411.337921
5632.573829	1.427142	0.061080	1782.821655
5632.574751	1.430925	0.061080	3102.134766
5632.575658	1.398904	0.061080	4370.940430
5632.576558	1.365582	0.061080	5599.964844
5632.577531	0.954133	0.061080	6528.336426
5632.578443	0.130902	0.061080	6647.719238
5632.579344	0.097507	0.061080	6735.573242
5632.580248	0.097687	0.061080	6823.881836
5632.581167	0.097701	0.061080	6913.669434
5632.582077	0.097621	0.061080	7002.504395
5632.582972	0.097599	0.061080	7089.855469
5632.583900	0.097771	0.061080	7180.586914
5632.584810	0.097734	0.061080	7269.525391
5632.585711	0.097705	0.061080	7357.557617
5632.586603	0.097672	0.061080	7444.681152
5633.519056	0.958971	0.068576	426.742065
5633.519947	1.425923	0.068576	1697.239380
5633.520920	1.431288	0.068576	3089.882324
5633.521837	1.399032	0.068576	4372.794922
5633.522730	1.365879	0.068576	5592.524902
5633.523683	0.983470	0.068576	6529.772461
5633.524589	0.136970	0.068576	6653.867676
5633.525489	0.097610	0.068576	6741.716797
5633.526381	0.097734	0.068576	6828.895996
5633.527322	0.097797	0.068576	6920.922852
5633.528226	0.097767	0.068576	7009.304687
5633.529127	0.097698	0.068576	7097.330566
5633.530013	0.097716	0.068576	7183.907227
5633.530954	0.097738	0.068576	7275.878906
5633.531861	0.097712	0.068576	7364.503906
5633.532747	0.097753	0.068576	7451.112793
5634.644440	0.966940	0.061765	432.222046
5634.645336	1.426395	0.061765	1710.272217
5634.646233	1.433104	0.061765	2995.766602
5634.647224	1.398710	0.061765	4381.887695
5634.648141	1.364604	0.061765	5633.229980
5634.649052	0.993420	0.061765	6538.235840
5634.649939	0.141833	0.061765	6664.041992
5634.650882	0.097654	0.061765	6756.129395
5634.651796	0.097760	0.061765	6845.481934
5634.652686	0.097734	0.061765	6932.465332
5634.653611	0.097804	0.061765	7022.934082
5634.654520	0.097866	0.061765	7111.894531
5634.655424	0.097683	0.061765	7200.200195
5634.656311	0.097738	0.061765	7286.894043
5634.657263	0.097888	0.061765	7380.083496
5634.658161	0.097760	0.061765	7467.872070
5635.587068	1.011094	0.065608	493.413757
5635.587988	1.431332	0.065608	1810.239014
5635.588895	1.431064	0.065608	3108.214355
5635.589789	1.398966	0.065608	4358.890137
5635.590737	1.364498	0.065608	5652.434570
5635.591659	0.974996	0.065608	6551.381348
5635.592547	0.138138	0.065608	6674.048340
5635.593475	0.097588	0.065608	6764.609863
5635.594388	0.097822	0.065608	6853.921387
5635.595291	0.097628	0.065608	6942.079590
5635.596181	0.097668	0.065608	7029.004395
5635.597132	0.097665	0.065608	7121.883789
5635.598026	0.097705	0.065608	7209.231934
5635.598924	0.097657	0.065608	7296.928223
5635.599809	0.097610	0.065608	7383.312988
5635.600758	0.097855	0.065608	7476.177734
5636.710362	0.965072	0.066619	429.457062
5636.711277	1.427897	0.066619	1735.982422
5636.712184	1.432496	0.066619	3035.256592
5636.713082	1.400292	0.066619	4292.718750
5636.714047	1.365407	0.066619	5610.335937
5636.714973	0.997445	0.066619	6533.970215
5636.715867	0.142229	0.066619	6661.123047
5636.716813	0.097551	0.066619	6753.406738
5636.717721	0.097709	0.066619	6842.126465
5636.718616	0.097657	0.066619	6929.529785
5636.719503	0.097603	0.066619	7016.103027
5636.720437	0.097815	0.066619	7107.462402
5636.721346	0.097694	0.066619	7196.266113
5636.722245	0.097753	0.066619	7284.145996
5636.723148	0.097694	0.066619	7372.363770
5636.724080	0.097756	0.066619	7463.472656
5637.661144	0.971682	0.060423	436.285248
5637.662052	1.427604	0.060423	1732.549438
5637.662945	1.432339	0.060423	3011.627930
5637.663910	1.399083	0.060423	4361.743164
5637.664817	1.365703	0.060423	5600.436035
5637.665720	1.028533	0.060423	6529.201172
5637.666670	0.145726	0.060423	6667.641113
5637.667570	0.097573	0.060423	6755.457031
5637.668469	0.097723	0.060423	6843.310547
5637.669362	0.097650	0.060423	6930.512207
5637.670300	0.097826	0.060423	7022.272949
5637.671206	0.097723	0.060423	7110.810547
5637.672107	0.097738	0.060423	7198.872559
5637.672998	0.097665	0.060423	7285.892090
5637.673945	0.097753	0.060423	7378.463867
5637.674850	0.097756	0.060423	7466.933594
5638.771680	0.959952	0.067799	431.978577
5638.772584	1.427175	0.067799	1722.145020
5638.773534	1.431654	0.067799	3082.216309
5638.774444	1.399351	0.067799	4355.625488
5638.775346	1.365765	0.067799	5587.545898
5638.776250	1.038149	0.067799	6526.032715
5638.777199	0.137963	0.067799	6656.959473
5638.778117	0.097504	0.067799	6746.467773
5638.779019	0.097738	0.067799	6834.627441
5638.779910	0.097625	0.067799	6921.610840
5638.780865	0.097701	0.067799	7014.915527
5638.781767	0.097738	0.067799	7103.075195
5638.782663	0.097701	0.067799	7190.615723
5638.783611	0.097764	0.067799	7283.295898
5638.784522	0.097738	0.067799	7372.335449
5638.785417	0.097676	0.067799	7459.755371
5639.740880	0.961999	0.058079	425.203766
5639.741790	1.427054	0.058079	1723.823242
5639.742686	1.432313	0.058079	3007.176025
5639.743641	1.399786	0.058079	4343.972168
5639.744560	1.365773	0.058079	5599.117187
5639.745464	1.030364	0.058079	6530.565918
5639.746397	0.147759	0.058079	6668.424805
5639.747301	0.097632	0.058079	6756.684082
5639.748201	0.097625	0.058079	6844.545898
5639.749090	0.097672	0.058079	6931.376465
5639.750015	0.097775	0.058079	7021.817871
5639.750921	0.097694	0.058079	7110.328613
5639.751828	0.097617	0.058079	7198.867187
5639.752718	0.097687	0.058079	7285.808594
5639.753671	0.097778	0.058079	7378.991211
5639.754582	0.097646	0.058079	7467.947266
5640.827895	0.999404	0.072778	473.717651
5640.828805	1.429838	0.072778	1774.869873
5640.829736	1.430885	0.072778	3107.023926
5640.830631	1.398651	0.072778	4358.816406
5640.831594	1.363645	0.072778	5672.006836
5640.832535	0.927198	0.072778	6544.500488
5640.833422	0.130624	0.072778	6660.363770
5640.834373	0.097573	0.072778	6753.155762
5640.835264	0.097683	0.072778	6840.191406
5640.836156	0.097661	0.072778	6927.305176
5640.837090	0.097760	0.072778	7018.612793
5640.838000	0.097650	0.072778	7107.474609
5640.838901	0.097793	0.072778	7195.585937
5640.839786	0.097625	0.072778	7281.983398
5640.840725	0.097775	0.072778	7373.793945
5640.841635	0.097698	0.072778	7462.698730
5641.827281	0.962791	0.057160	424.590637
5641.828187	1.426981	0.057160	1717.435547
5641.829084	1.432588	0.057160	3002.466797
5641.830032	1.399867	0.057160	4329.540527
5641.830945	1.366227	0.057160	5576.905762
5641.831856	1.039189	0.057160	6523.607422
5641.832788	0.150747	0.057160	6664.103516
5641.833687	0.097632	0.057160	6751.874512
5641.834591	0.097687	0.057160	6840.183594
5641.835483	0.097683	0.057160	6927.316895
5641.836412	0.097866	0.057160	7018.234375
5641.837320	0.097698	0.057160	7106.943848
5641.838222	0.097764	0.057160	7195.126465
5641.839110	0.097679	0.057160	7281.865723
5641.840063	0.097712	0.057160	7374.985840
5641.840973	0.097661	0.057160	7463.857422
5642.883544	0.971309	0.071940	437.088898
5642.884462	1.428245	0.071940	1748.217529
5642.885363	1.432405	0.071940	3038.814209
5642.886319	1.399102	0.071940	4376.355469
5642.887233	1.365077	0.071940	5624.035645
5642.888145	0.993138	0.071940	6529.777832
5642.889069	0.138138	0.071940	6657.417969
5642.889957	0.097504	0.071940	6744.000977
5642.890884	0.097694	0.071940	6834.563477
5642.891794	0.097665	0.071940	6923.438477
5642.892710	0.097731	0.071940	7012.959961
5642.893602	0.097654	0.071940	7100.067383
5642.894540	0.097687	0.071940	7191.697754
5642.895459	0.097676	0.071940	7281.461914
5642.896349	0.097712	0.071940	7368.425781
5642.897302	0.097749	0.071940	7461.580566
5643.902971	1.006388	0.060399	482.059814
5643.903884	1.430501	0.060399	1788.106812
5643.904793	1.431350	0.060399	3089.204102
5643.905686	1.399076	0.060399	4338.579102
5643.906641	1.364919	0.060399	5642.077148
5643.907567	0.974041	0.060399	6544.038574
5643.908456	0.138058	0.060399	6666.771973
5643.909401	0.097657	0.060399	6759.058105
5643.910301	0.097738	0.060399	6847.022461
5643.911203	0.097709	0.060399	6935.155762
5643.912091	0.097661	0.060399	7021.878906
5643.913029	0.097712	0.060399	7113.533203
5643.913942	0.097734	0.060399	7202.764648
5643.914845	0.097789	0.060399	7291.068359
5643.915743	0.097723	0.060399	7378.823730
5643.916679	0.097819	0.060399	7470.381836
5644.950476	0.955964	0.068903	419.668335
5644.951381	1.426395	0.068903	1710.556030
5644.952283	1.432650	0.068903	3002.806396
5644.953222	1.400317	0.068903	4317.704590
5644.954134	1.366754	0.068903	5564.184570
5644.955032	1.057548	0.068903	6513.862305
5644.955980	0.151875	0.068903	6657.839844
5644.956891	0.097628	0.068903	6746.779297
5644.957786	0.097694	0.068903	6834.215332
5644.958675	0.097705	0.068903	6921.075195
5644.959616	0.097771	0.068903	7013.077637
5644.960523	0.097716	0.068903	7101.706055
5644.961417	0.097672	0.068903	7189.024902
5644.962335	0.097657	0.068903	7278.674316
5644.963221	0.097753	0.068903	7365.283203
5644.964171	0.097668	0.068903	7458.068359
5645.968842	0.968375	0.064012	425.116730
5645.969817	1.431628	0.064012	1820.954346
5645.970739	1.430167	0.064012	3139.568359
5645.971644	1.398003	0.064012	4404.760742
5645.972578	1.364136	0.064012	5678.863281
5645.973498	0.952504	0.064012	6555.166504
5645.974397	0.132539	0.064012	6674.319336
5645.975288	0.097610	0.064012	6761.289551
5645.976239	0.097636	0.064012	6854.141113
5645.977141	0.097683	0.064012	6942.251465
5645.978038	0.097665	0.064012	7029.856934
5645.978956	0.097734	0.064012	7119.577148
5645.979869	0.097723	0.064012	7208.798828
5645.980772	0.097639	0.064012	7296.966797
5645.981673	0.097701	0.064012	7384.995605
5645.982602	0.097782	0.064012	7475.834961
5647.030222	0.958462	0.061877	421.723236
5647.031126	1.426534	0.061877	1711.310425
5647.032020	1.432419	0.061877	2991.893555
5647.032984	1.399735	0.061877	4341.238281
5647.033904	1.365912	0.061877	5597.876953
5647.034808	1.029375	0.061877	6528.432129
5647.035743	0.145323	0.061877	6664.309570
5647.036648	0.097592	0.061877	6752.629883
5647.037548	0.097636	0.061877	6840.501953
5647.038439	0.097672	0.061877	6927.527832
5647.039391	0.097786	0.061877	7020.619629
5647.040294	0.097800	0.061877	7108.933105
5647.041202	0.097690	0.061877	7197.636230
5647.042115	0.097701	0.061877	7286.837402
5647.043042	0.097742	0.061877	7377.443848
5647.043951	0.097698	0.061877	7466.250977
5648.021455	0.961055	0.069213	424.786163
5648.022356	1.426934	0.069213	1710.453247
5648.023313	1.431248	0.069213	3080.157227
5648.024230	1.398856	0.069213	4362.908203
5648.025160	1.364886	0.069213	5632.252441
5648.026059	0.994197	0.069213	6526.035156
5648.027010	0.133971	0.069213	6653.441406
5648.027903	0.097570	0.069213	6740.570801
5648.028797	0.097731	0.069213	6827.941895
5648.029728	0.097778	0.069213	6918.973633
5648.030632	0.097749	0.069213	7007.338867
5648.031549	0.097625	0.069213	7096.860352
5648.032438	0.097716	0.069213	7183.729980
5648.033395	0.097731	0.069213	7277.258301
5648.034305	0.097709	0.069213	7366.173340
5648.035193	0.097756	0.069213	7452.980957
5649.120215	0.966650	0.060061	436.925964
5649.121115	1.427219	0.060061	1721.423340
5649.122063	1.431738	0.060061	3078.711182
5649.122976	1.399197	0.060061	4356.177734
5649.123879	1.365996	0.060061	5589.671875
5649.124783	1.040215	0.060061	6530.026367
5649.125706	0.144020	0.060061	6662.956543
5649.126616	0.097676	0.060061	6751.841309
5649.127518	0.097665	0.060061	6839.935059
5649.128408	0.097749	0.060061	6926.931641
5649.129368	0.097793	0.060061	7020.812988
5649.130276	0.097676	0.060061	7109.502441
5649.131174	0.097738	0.060061	7197.270996
5649.132105	0.097771	0.060061	7288.295898
5649.133010	0.097756	0.060061	7376.765625
5649.133905	0.097595	0.060061	7464.113281
5650.074071	0.964948	0.068472	432.296478
5650.074964	1.425908	0.068472	1705.632568
5650.075940	1.431086	0.068472	3102.373047
5650.076857	1.398398	0.068472	4384.704102
5650.077754	1.365476	0.068472	5609.536133
5650.078705	0.968284	0.068472	6530.374023
5650.079606	0.135311	0.068472	6652.289551
5650.080512	0.097537	0.068472	6740.657715
5650.081402	0.097617	0.068472	6827.537109
5650.082335	0.097760	0.068472	6918.747070
5650.083243	0.097771	0.068472	7007.522949
5650.084142	0.097668	0.068472	7095.326660
5650.085028	0.097687	0.068472	7181.876953
5650.085971	0.097789	0.068472	7274.092285
5650.086879	0.097734	0.068472	7362.834961
5650.087769	0.097650	0.068472	7449.743652
5651.197382	0.949666	0.060467	414.054169
5651.198278	1.425553	0.060467	1691.349609
5651.199265	1.430801	0.060467	3103.549805
5651.200186	1.398142	0.060467	4391.238281
5651.201089	1.364766	0.060467	5623.621582
5651.202027	0.975256	0.060467	6538.412109
5651.202922	0.137406	0.060467	6661.390625
5651.203820	0.097625	0.060467	6749.057617
5651.204710	0.097661	0.060467	6835.976074
5651.205656	0.097764	0.060467	6928.460449
5651.206554	0.097712	0.060467	7016.206055
5651.207455	0.097716	0.060467	7104.248047
5651.208367	0.097683	0.060467	7193.334961
5651.209298	0.097764	0.060467	7284.353027
5651.210213	0.097679	0.060467	7373.729492
5651.211113	0.097676	0.060467	7461.637695
5652.140997	0.945868	0.064105	410.506683
5652.141955	1.428065	0.064105	1778.593140
5652.142873	1.431171	0.064105	3092.407715
5652.143783	1.399006	0.064105	4365.503418
5652.144680	1.365582	0.064105	5590.430664
5652.145642	0.974626	0.064105	6528.021484
5652.146549	0.136615	0.064105	6651.931152
5652.147441	0.097595	0.064105	6738.986328
5652.148365	0.097723	0.064105	6829.282715
5652.149278	0.097745	0.064105	6918.524414
5652.150188	0.097665	0.064105	7007.399414
5652.151087	0.097705	0.064105	7095.236328
5652.152020	0.097716	0.064105	7186.405273
5652.152922	0.097676	0.064105	7274.508789
5652.153820	0.097657	0.064105	7362.205078
5652.154705	0.097654	0.064105	7448.628906
5653.258749	1.006014	0.068991	481.880859
5653.259659	1.429713	0.068991	1782.919800
5653.260568	1.431368	0.068991	3084.033691
5653.261478	1.399153	0.068991	4357.262695
5653.262412	1.365084	0.068991	5632.251465
5653.263333	0.984547	0.068991	6539.019531
5653.264228	0.139753	0.068991	6664.098633
5653.265160	0.097628	0.068991	6755.087891
5653.266064	0.097694	0.068991	6843.403320
5653.266973	0.097742	0.068991	6932.250488
5653.267865	0.097720	0.068991	7019.416504
5653.268814	0.097800	0.068991	7112.229004
5653.269727	0.097753	0.068991	7201.477051
5653.270625	0.097720	0.068991	7289.229492
5653.271540	0.097833	0.068991	7378.747070
5653.272452	0.097819	0.068991	7467.957520
5654.222812	0.966347	0.057982	430.024200
5654.223716	1.427076	0.057982	1720.101318
5654.224605	1.432419	0.057982	2993.522217
5654.225579	1.399354	0.057982	4356.493164
5654.226490	1.365791	0.057982	5600.728516
5654.227395	1.024731	0.057982	6528.110352
5654.228332	0.145195	0.057982	6664.158203
5654.229240	0.097650	0.057982	6752.824707
5654.230144	0.097690	0.057982	6841.136719
5654.231039	0.097771	0.057982	6928.641602
5654.231987	0.097712	0.057982	7021.272949
5654.232890	0.097716	0.057982	7109.510742
5654.233797	0.097687	0.057982	7198.112793
5654.234694	0.097731	0.057982	7285.777344
5654.235628	0.097760	0.057982	7377.084961
5654.236538	0.097683	0.057982	7465.976562
5655.313375	0.962234	0.069169	435.891937
5655.314276	1.427223	0.069169	1721.819824
5655.315228	1.431676	0.069169	3084.775391
5655.316140	1.399058	0.069169	4360.715820
5655.317047	1.365439	0.069169	5599.169434
5655.317953	1.024567	0.069169	6527.426758
5655.318883	0.139098	0.069169	6656.787598
5655.319792	0.097551	0.069169	6745.461914
5655.320693	0.097679	0.069169	6833.471191
5655.321584	0.097661	0.069169	6920.487305
5655.322524	0.097654	0.069169	7012.281738
5655.323427	0.097690	0.069169	7100.496094
5655.324317	0.097720	0.069169	7187.466797
5655.325271	0.097775	0.069169	7280.743652
5655.326168	0.097738	0.069169	7368.414551
5655.327071	0.097775	0.069169	7456.705078
5656.306641	0.959473	0.056681	426.965332
5656.307536	1.425890	0.056681	1703.136719
5656.308533	1.430438	0.056681	3129.283691
5656.309456	1.397640	0.056681	4419.305664
5656.310353	1.364381	0.056681	5643.155273
5656.311301	0.928806	0.056681	6523.663574
5656.312222	0.126346	0.056681	6640.028809
5656.313130	0.097562	0.056681	6728.615234
5656.314028	0.097723	0.056681	6816.370605
5656.314958	0.097797	0.056681	6907.321289
5656.315866	0.097782	0.056681	6996.107422
5656.316769	0.097731	0.056681	7084.358398
5656.317657	0.097738	0.056681	7171.149902
5656.318603	0.097797	0.056681	7263.665527
5656.319506	0.097756	0.056681	7351.939453
5656.320400	0.097753	0.056681	7439.330566
5657.371115	0.971001	0.073914	457.341461
5657.372056	1.430977	0.073914	1803.890381
5657.372968	1.430358	0.073914	3108.376465
5657.373874	1.398270	0.073914	4375.209473
5657.374818	1.363916	0.073914	5662.746094
5657.375735	0.956975	0.073914	6540.291992
5657.376638	0.132711	0.073914	6660.130371
5657.377523	0.097562	0.073914	6746.473145
5657.378468	0.097786	0.073914	6838.880371
5657.379376	0.097690	0.073914	6927.583496
5657.380268	0.097661	0.073914	7014.697266
5657.381202	0.097745	0.073914	7105.991211
5657.382107	0.097723	0.073914	7194.430664
5657.383006	0.097742	0.073914	7282.300293
5657.383906	0.097709	0.073914	7370.238281
5657.384841	0.097786	0.073914	7461.667969
5658.384894	0.970408	0.061317	474.529388
5658.385824	1.432203	0.061317	1806.478638
5658.386732	1.430680	0.061317	3105.536133
5658.387629	1.398977	0.061317	4360.418457
5658.388587	1.363868	0.061317	5667.004395
5658.389512	0.937526	0.061317	6534.215820
5658.390412	0.131177	0.061317	6652.274902
5658.391296	0.097665	0.061317	6738.610352
5658.392234	0.097771	0.061317	6830.319336
5658.393140	0.097720	0.061317	6918.853516
5658.394031	0.097745	0.061317	7005.944824
5658.394959	0.097786	0.061317	7096.689941
5658.395875	0.097668	0.061317	7186.154297
5658.396771	0.097764	0.061317	7273.750488
5658.397689	0.097789	0.061317	7363.520996
5658.398599	0.097877	0.061317	7452.589355
5659.434980	0.971580	0.070844	439.153961
5659.435903	1.428453	0.070844	1757.616333
5659.436799	1.431885	0.070844	3040.584961
5659.437736	1.399783	0.070844	4352.181152
5659.438649	1.365630	0.070844	5599.000977
5659.439561	1.019509	0.070844	6528.793457
5659.440450	0.147946	0.070844	6660.316895
5659.441399	0.097621	0.070844	6752.958984
5659.442311	0.097793	0.070844	6842.145996
5659.443217	0.097720	0.070844	6930.680176
5659.444103	0.097797	0.070844	7017.328125
5659.445044	0.097826	0.070844	7109.382324
5659.445952	0.097610	0.070844	7198.012207
5659.446841	0.097742	0.070844	7284.904785
5659.447767	0.097767	0.070844	7375.437500
5659.448668	0.097749	0.070844	7463.509277
5660.456409	0.962150	0.060387	431.043060
5660.457305	1.426663	0.060387	1709.332886
5660.458262	1.431489	0.060387	3079.268066
5660.459173	1.398926	0.060387	4353.689453
5660.460082	1.365524	0.060387	5594.950195
5660.460987	1.010966	0.060387	6509.874023
5660.461939	0.134813	0.060387	6638.216309
5660.462841	0.097562	0.060387	6726.217285
5660.463733	0.097683	0.060387	6813.350586
5660.464666	0.097738	0.060387	6904.540039
5660.465570	0.097738	0.060387	6992.895020
5660.466469	0.097720	0.060387	7080.745117
5660.467357	0.097749	0.060387	7167.546387
5660.468303	0.097738	0.060387	7260.006348
5660.469204	0.097679	0.060387	7348.015625
5660.470098	0.097771	0.060387	7435.422852
5661.502939	0.964545	0.069265	431.151489
5661.503830	1.426194	0.069265	1701.890137
5661.504788	1.431486	0.069265	3073.253418
5661.505697	1.398823	0.069265	4344.783691
5661.506607	1.365630	0.069265	5587.506836
5661.507555	0.985796	0.069265	6522.041504
5661.508465	0.136403	0.069265	6646.167969
5661.509367	0.097621	0.069265	6734.222168
5661.510264	0.097771	0.069265	6821.922852
5661.511213	0.097786	0.069265	6914.721191
5661.512115	0.097742	0.069265	7002.884277
5661.513015	0.097778	0.069265	7090.884766
5661.513904	0.097738	0.069265	7177.773926
5661.514849	0.097775	0.069265	7270.170898
5661.515749	0.097811	0.069265	7358.201172
5661.516647	0.097826	0.069265	7446.048828
5662.523849	0.946926	0.061217	415.700653
5662.524805	1.430251	0.061217	1783.021118
5662.525724	1.431119	0.061217	3098.219727
5662.526632	1.398992	0.061217	4368.503906
5662.527525	1.365505	0.061217	5587.900391
5662.528489	0.971470	0.061217	6524.397461
5662.529383	0.137128	0.061217	6646.989746
5662.530274	0.097592	0.061217	6733.943848
5662.531220	0.097804	0.061217	6826.466309
5662.532123	0.097727	0.061217	6914.713867
5662.533033	0.097815	0.061217	7003.725586
5662.533925	0.097683	0.061217	7090.858887
5662.534859	0.097808	0.061217	7182.211426
5662.535777	0.097716	0.061217	7271.914551
5662.536680	0.097815	0.061217	7360.241211
5662.537568	0.097877	0.061217	7447.156250
5663.574015	0.986019	0.067859	482.163422
5663.574931	1.430709	0.067859	1792.693115
5663.575841	1.431086	0.067859	3094.981934
5663.576733	1.399179	0.067859	4343.049316
5663.577679	1.364344	0.067859	5633.719238
5663.578606	0.962607	0.067859	6526.056152
5663.579513	0.133202	0.067859	6646.870117
5663.580404	0.097603	0.067859	6733.833984
5663.581356	0.097815	0.067859	6826.953613
5663.582262	0.097720	0.067859	6915.487793
5663.583160	0.097687	0.067859	7003.210449
5663.584094	0.097848	0.067859	7094.600586
5663.584997	0.097808	0.067859	7182.920898
5663.585896	0.097705	0.067859	7270.757812
5663.586782	0.097643	0.067859	7357.269531
5663.587717	0.097844	0.067859	7448.753906
5664.591351	0.972883	0.065293	469.902618
5664.592268	1.430127	0.065293	1781.329102
5664.593172	1.431321	0.065293	3075.243164
5664.594060	1.399797	0.065293	4318.263184
5664.595009	1.364945	0.065293	5613.596191
5664.595922	0.995815	0.065293	6522.775879
5664.596815	0.142017	0.065293	6649.596680
5664.597751	0.097636	0.065293	6740.983398
5664.598660	0.097661	0.065293	6829.757324
5664.599568	0.097628	0.065293	6918.403809
5664.600454	0.097764	0.065293	7005.022461
5664.601396	0.097767	0.065293	7097.119141
5664.602308	0.097698	0.065293	7186.219727
5664.603205	0.097654	0.065293	7273.815430
5664.604095	0.097676	0.065293	7360.747070
5664.605043	0.097734	0.065293	7453.399414
5665.645520	0.965013	0.065857	430.395966
5665.646425	1.427161	0.065857	1721.976318
5665.647392	1.430878	0.065857	3105.635010
5665.648314	1.398142	0.065857	4394.721680
5665.649227	1.364733	0.065857	5640.722656
5665.650129	0.974326	0.065857	6519.564941
5665.651079	0.130052	0.065857	6643.114746
5665.651986	0.097496	0.065857	6731.543945
5665.652880	0.097665	0.065857	6818.856445
5665.653826	0.097753	0.065857	6911.330566
5665.654726	0.097833	0.065857	6999.380371
5665.655623	0.097712	0.065857	7087.028320
5665.656513	0.097738	0.065857	7174.015137
5665.657446	0.097756	0.065857	7265.221680
5665.658348	0.097753	0.065857	7353.394531
5665.659254	0.097690	0.065857	7441.901855
5666.659303	0.964655	0.066385	436.023865
5666.660204	1.427227	0.066385	1721.955078
5666.661140	1.431910	0.066385	3062.223145
5666.662061	1.399204	0.066385	4350.890137
5666.662966	1.365992	0.066385	5587.113281
5666.663864	1.041530	0.066385	6522.406738
5666.664799	0.141936	0.066385	6655.116699
5666.665703	0.097581	0.066385	6743.329590
5666.666622	0.097716	0.066385	6833.130859
5666.667513	0.097804	0.066385	6920.274414
5666.668470	0.097767	0.066385	7013.837891
5666.669374	0.097742	0.066385	7102.196289
5666.670264	0.097815	0.066385	7189.251465
5666.671196	0.097749	0.066385	7280.353516
5666.672103	0.097668	0.066385	7368.938965
5666.672999	0.097749	0.066385	7456.521973
5667.712975	0.955463	0.065104	422.314514
5667.713929	1.430204	0.065104	1786.729004
5667.714840	1.431123	0.065104	3090.481934
5667.715747	1.399014	0.065104	4359.387207
5667.716645	1.365619	0.065104	5585.712891
5667.717598	0.989685	0.065104	6528.882812
5667.718505	0.138519	0.065104	6654.520020
5667.719398	0.097592	0.065104	6741.669434
5667.720329	0.097833	0.065104	6832.751953
5667.721238	0.097786	0.065104	6921.639160
5667.722139	0.097716	0.065104	7009.681152
5667.723031	0.097701	0.065104	7096.831055
5667.723970	0.097844	0.065104	7188.707031
5667.724867	0.097786	0.065104	7276.420898
5667.725770	0.097756	0.065104	7364.694824
5667.726659	0.097775	0.065104	7451.616699
5668.729282	0.943850	0.062397	406.799377
5668.730239	1.427248	0.062397	1772.676270
5668.731152	1.431555	0.062397	3079.686035
5668.732054	1.399636	0.062397	4342.158203
5668.732953	1.366168	0.062397	5570.343262
5668.733920	0.986997	0.062397	6524.769531
5668.734815	0.139904	0.062397	6649.983398
5668.735711	0.097577	0.062397	6737.412109
5668.736619	0.097646	0.062397	6826.075195
5668.737543	0.097793	0.062397	6916.436035
5668.738454	0.097749	0.062397	7005.485352
5668.739349	0.097764	0.062397	7092.983887
5668.740280	0.097819	0.062397	7184.053223
5668.741186	0.097709	0.062397	7272.577148
5668.742082	0.097775	0.062397	7360.183105
5668.742970	0.097760	0.062397	7446.994141
5669.781467	0.964611	0.068717	436.003967
5669.782366	1.426688	0.068717	1718.596680
5669.783319	1.431445	0.068717	3082.764160
5669.784235	1.398834	0.068717	4364.096191
5669.785135	1.365736	0.068717	5593.258789
5669.786038	1.034714	0.068717	6527.605957
5669.786968	0.141643	0.068717	6659.333984
5669.787878	0.097621	0.068717	6748.168945
5669.788787	0.097698	0.068717	6836.976074
5669.789677	0.097665	0.068717	6923.897949
5669.790625	0.097844	0.068717	7016.654297
5669.791534	0.097756	0.068717	7105.514648
5669.792427	0.097749	0.068717	7192.804687
5669.793354	0.097819	0.068717	7283.482422
5669.794260	0.097841	0.068717	7372.125977
5669.795159	0.097709	0.068717	7459.966309
5670.799867	0.974128	0.063424	475.374695
5670.800777	1.430061	0.063424	1776.730225
5670.801699	1.430808	0.063424	3095.935303
5670.802593	1.398816	0.063424	4346.476562
5670.803522	1.364747	0.063424	5614.326660
5670.804448	0.982647	0.063424	6524.257324
5670.805348	0.137875	0.063424	6648.344727
5670.806240	0.097544	0.063424	6735.354004
5670.807194	0.097815	0.063424	6828.669434
5670.808100	0.097793	0.063424	6917.270020
5670.808994	0.097676	0.063424	7004.592285
5670.809921	0.097797	0.063424	7095.250000
5670.810824	0.097742	0.063424	7183.510742
5670.811720	0.097782	0.063424	7271.123535
5670.812607	0.097632	0.063424	7357.723145
5670.813547	0.097830	0.063424	7449.683105
5671.848903	0.946066	0.070216	409.646393
5671.849844	1.426307	0.070216	1751.801636
5671.850762	1.431738	0.070216	3066.137207
5671.851674	1.399655	0.070216	4342.622070
5671.852569	1.366487	0.070216	5565.627930
5671.853535	0.992238	0.070216	6524.129395
5671.854437	0.140306	0.070216	6650.685547
5671.855337	0.097621	0.070216	6738.544434
5671.856226	0.097786	0.070216	6825.476074
5671.857163	0.097877	0.070216	6917.187012
5671.858070	0.097731	0.070216	7005.828613
5671.858969	0.097760	0.070216	7093.714844
5671.859893	0.097793	0.070216	7184.075684
5671.860801	0.097833	0.070216	7272.908203
5671.861709	0.097709	0.070216	7361.627930
5671.862596	0.097698	0.070216	7448.285645
5672.869838	0.957839	0.060028	424.322845
5672.870732	1.426157	0.060028	1699.307495
5672.871717	1.430405	0.060028	3108.256836
5672.872643	1.398003	0.060028	4402.807617
5672.873540	1.364498	0.060028	5626.762695
5672.874503	0.935372	0.060028	6527.526367
5672.875406	0.129976	0.060028	6644.894531
5672.876295	0.097584	0.060028	6731.646973
5672.877235	0.097786	0.060028	6823.565430
5672.878150	0.097756	0.060028	6913.012695
5672.879059	0.097727	0.060028	7001.846680
5672.879950	0.097753	0.060028	7088.944336
5672.880902	0.097756	0.060028	7182.008301
5672.881804	0.097742	0.060028	7270.171387
5672.882725	0.097815	0.060028	7360.258789
5672.883611	0.097742	0.060028	7446.857910
5673.918417	0.959740	0.069229	423.245331
5673.919312	1.425798	0.069229	1699.334961
5673.920273	1.431449	0.069229	3074.957520
5673.921191	1.398897	0.069229	4359.144531
5673.922089	1.365908	0.069229	5585.729980
5673.923050	0.985459	0.069229	6532.755859
5673.923942	0.138918	0.069229	6656.670898
5673.924843	0.097610	0.069229	6744.617187
5673.925729	0.097738	0.069229	6831.212891
5673.926670	0.097767	0.069229	6923.211914
5673.927574	0.097734	0.069229	7011.563965
5673.928481	0.097632	0.069229	7100.116211
5673.929370	0.097716	0.069229	7186.985840
5673.930311	0.097789	0.069229	7279.005371
5673.931225	0.097742	0.069229	7368.341309
5673.932114	0.097716	0.069229	7455.210937
5674.936782	0.968785	0.058816	426.265564
5674.937755	1.431138	0.058816	1818.762451
5674.938659	1.430933	0.058816	3112.325684
5674.939553	1.398922	0.058816	4362.961914
5674.940510	1.364634	0.058816	5668.916504
5674.941425	0.964025	0.058816	6550.999023
5674.942338	0.131602	0.058816	6671.151367
5674.943232	0.097559	0.058816	6758.368652
5674.944173	0.097709	0.058816	6850.312500
5674.945078	0.097698	0.058816	6938.729004
5674.945964	0.097775	0.058816	7025.357422
5674.946877	0.097731	0.058816	7114.585449
5674.947803	0.097745	0.058816	7205.097656
5674.948698	0.097668	0.058816	7292.510742
5674.949587	0.097723	0.058816	7379.386719
5674.950532	0.097654	0.058816	7471.669434
5675.991505	0.960425	0.069044	427.389069
5675.992401	1.426080	0.069044	1705.156982
5675.993373	1.430940	0.069044	3096.030762
5675.994289	1.398479	0.069044	4377.037598
5675.995184	1.365483	0.069044	5599.145508
5675.996132	0.990564	0.069044	6538.200195
5675.997038	0.139720	0.069044	6664.787109
5675.997931	0.097621	0.069044	6751.962402
5675.998824	0.097793	0.069044	6839.291504
5675.999766	0.097756	0.069044	6931.377930
5676.000673	0.097797	0.069044	7020.079590
5676.001574	0.097734	0.069044	7108.138184
5676.002461	0.097797	0.069044	7194.883789
5676.003408	0.097837	0.069044	7287.535156
5676.004313	0.097694	0.069044	7375.948242
5676.005206	0.097723	0.069044	7463.215332
5676.998100	0.962292	0.058107	427.257874
5676.999006	1.427340	0.058107	1720.427979
5676.999898	1.432097	0.058107	2997.858643
5677.000864	1.399186	0.058107	4349.472168
5677.001769	1.365978	0.058107	5585.682129
5677.002667	1.048612	0.058107	6527.335937
5677.003592	0.152615	0.058107	6668.504395
5677.004503	0.097566	0.058107	6757.386719
5677.005418	0.097712	0.058107	6846.793457
5677.006305	0.097786	0.058107	6933.529297
5677.007243	0.097753	0.058107	7025.221191
5677.008147	0.097734	0.058107	7113.573242
5677.009073	0.097753	0.058107	7204.092285
5677.009965	0.097778	0.058107	7291.310547
5677.010921	0.097679	0.058107	7384.691895
5677.011821	0.097698	0.058107	7472.620117
5678.070739	0.961890	0.069088	429.964691
5678.071643	1.427230	0.069088	1720.180908
5678.072584	1.431826	0.069088	3067.529297
5678.073506	1.399314	0.069088	4357.696777
5678.074417	1.365381	0.069088	5601.558594
5678.075317	1.028917	0.069088	6527.583984
5678.076273	0.135802	0.069088	6657.410645
5678.077177	0.097628	0.069088	6745.666504
5678.078081	0.097705	0.069088	6833.991699
5678.078975	0.097716	0.069088	6921.350098
5678.079907	0.097749	0.069088	7012.452148
5678.080816	0.097833	0.069088	7101.382812
5678.081712	0.097709	0.069088	7188.929687
5678.082639	0.097855	0.069088	7279.641602
5678.083550	0.097709	0.069088	7368.654297
5678.084451	0.097767	0.069088	7456.742676
5679.054804	0.956679	0.059348	424.765259
5679.055703	1.426260	0.059348	1706.972778
5679.056650	1.431936	0.059348	3063.016113
5679.057566	1.399453	0.059348	4344.915039
5679.058491	1.365359	0.059348	5607.872070
5679.059394	1.023051	0.059348	6531.686523
5679.060345	0.135139	0.059348	6660.204102
5679.061249	0.097540	0.059348	6748.380371
5679.062176	0.097709	0.059348	6838.956543
5679.063067	0.097804	0.059348	6926.100098
5679.064004	0.097701	0.059348	7017.646484
5679.064908	0.097716	0.059348	7105.981934
5679.065800	0.097628	0.059348	7193.066406
5679.066742	0.097863	0.059348	7285.252930
5679.067645	0.097771	0.059348	7373.540039
5679.068535	0.097742	0.059348	7460.530273
5680.153056	0.971774	0.065724	438.269897
5680.153975	1.428186	0.065724	1750.772827
5680.154875	1.432115	0.065724	3039.676758
5680.155811	1.399416	0.065724	4349.530273
5680.156721	1.365582	0.065724	5592.209961
5680.157636	1.021648	0.065724	6527.018066
5680.158525	0.148528	0.065724	6659.059082
5680.159479	0.097614	0.065724	6752.182617
5680.160389	0.097753	0.065724	6841.137695
5680.161287	0.097694	0.065724	6928.867187
5680.162202	0.097698	0.065724	7018.260742
5680.163089	0.097716	0.065724	7104.935059
5680.164046	0.097712	0.065724	7198.445801
5680.164938	0.097734	0.065724	7285.625000
5680.165828	0.097687	0.065724	7372.566406
5680.166751	0.097760	0.065724	7462.798828
5681.112519	0.949102	0.061462	413.808289
5681.113474	1.430101	0.061462	1779.554932
5681.114398	1.430497	0.061462	3101.333984
5681.115324	1.398201	0.061462	4396.067871
5681.116217	1.364619	0.061462	5614.672852
5681.117185	0.950039	0.061462	6534.310547
5681.118079	0.133367	0.061462	6653.540527
5681.118968	0.097533	0.061462	6740.247559
5681.119909	0.097859	0.061462	6832.333008
5681.120809	0.097705	0.061462	6920.267578
5681.121726	0.097679	0.061462	7009.839844
5681.122622	0.097797	0.061462	7097.465820
5681.123560	0.097789	0.061462	7189.192383
5681.124472	0.097694	0.061462	7278.289551
5681.125362	0.097797	0.061462	7365.328613
5681.126279	0.097778	0.061462	7454.991211
5682.230236	0.970858	0.063219	437.856995
5682.231139	1.427450	0.063219	1726.844238
5682.232085	1.431540	0.063219	3081.081543
5682.232999	1.399039	0.063219	4359.803711
5682.233904	1.365802	0.063219	5595.854492
5682.234806	1.032532	0.063219	6527.198242
5682.235759	0.139230	0.063219	6659.884277
5682.236657	0.097562	0.063219	6747.495117
5682.237561	0.097727	0.063219	6835.840332
5682.238447	0.097789	0.063219	6922.481445
5682.239407	0.097822	0.063219	7016.390625
5682.240311	0.097753	0.063219	7104.759277
5682.241213	0.097756	0.063219	7192.935547
5682.242141	0.097749	0.063219	7283.646484
5682.243045	0.097877	0.063219	7372.127441
5682.243946	0.097723	0.063219	7460.176270
5683.177932	0.953247	0.064592	415.615753
5683.178911	1.429486	0.064592	1815.082520
5683.179837	1.430207	0.064592	3139.454590
5683.180744	1.397717	0.064592	4407.184082
5683.181640	1.364458	0.064592	5629.738281
5683.182598	0.945242	0.064592	6535.279785
5683.183507	0.130518	0.064592	6653.920410
5683.184406	0.097588	0.064592	6741.651855
5683.185335	0.097771	0.064592	6832.480957
5683.186242	0.097822	0.064592	6921.205566
5683.187138	0.097720	0.064592	7008.762207
5683.188027	0.097767	0.064592	7095.677246
5683.188971	0.097852	0.064592	7188.049316
5683.189873	0.097830	0.064592	7276.291504
5683.190773	0.097775	0.064592	7364.288574
5683.191661	0.097716	0.064592	7451.060547
5684.296148	0.963340	0.061394	429.649567
5684.297052	1.426304	0.061394	1719.028076
5684.297945	1.432786	0.061394	2998.505615
5684.298904	1.399676	0.061394	4340.795410
5684.299819	1.365846	0.061394	5590.544434
5684.300728	1.032455	0.061394	6529.045898
5684.301612	0.151318	0.061394	6662.811523
5684.302554	0.097657	0.061394	6754.804687
5684.303460	0.097683	0.061394	6843.305664
5684.304352	0.097701	0.061394	6930.455566
5684.305286	0.097764	0.061394	7021.766602
5684.306193	0.097793	0.061394	7110.464844
5684.307100	0.097778	0.061394	7199.149902
5684.307987	0.097650	0.061394	7285.765625
5684.308932	0.097738	0.061394	7378.127930
5684.309837	0.097804	0.061394	7466.640625
5685.255651	0.971323	0.064886	439.038116
5685.256561	1.427626	0.064886	1738.177490
5685.257464	1.432273	0.064886	3031.520020
5685.258398	1.399863	0.064886	4338.992187
5685.259321	1.365439	0.064886	5599.292969
5685.260246	1.007065	0.064886	6530.828613
5685.261137	0.144745	0.064886	6659.796387
5685.262082	0.097643	0.064886	6752.068848
5685.262983	0.097771	0.064886	6840.160645
5685.263881	0.097709	0.064886	6927.903320
5685.264767	0.097760	0.064886	7014.518555
5685.265721	0.097815	0.064886	7107.833984
5685.266618	0.097775	0.064886	7195.538086
5685.267515	0.097683	0.064886	7283.159668
5685.268448	0.097793	0.064886	7374.400391
5685.269358	0.097789	0.064886	7463.388672
5686.353873	0.949739	0.061978	415.035858
5686.354769	1.425608	0.061978	1692.380493
5686.355725	1.431749	0.061978	3061.132812
5686.356644	1.399391	0.061978	4347.172852
5686.357540	1.366498	0.061978	5571.554687
5686.358496	1.016107	0.061978	6542.953125
5686.359391	0.145056	0.061978	6672.778320
5686.360296	0.097540	0.061978	6761.052246
5686.361186	0.097793	0.061978	6848.087891
5686.362120	0.097826	0.061978	6939.457520
5686.363027	0.097738	0.061978	7028.105957
5686.363936	0.097709	0.061978	7116.923340
5686.364825	0.097804	0.061978	7203.871094
5686.365756	0.097797	0.061978	7294.919922
5686.366665	0.097679	0.061978	7383.710449
5686.367556	0.097745	0.061978	7470.801758
5687.337931	0.963636	0.065430	423.036377
5687.338907	1.431368	0.065430	1820.051880
5687.339827	1.430083	0.065430	3135.728027
5687.340722	1.398292	0.065430	4387.199707
5687.341659	1.364366	0.065430	5665.611328
5687.342576	0.964384	0.065430	6549.951172
5687.343471	0.135509	0.065430	6671.231934
5687.344368	0.097606	0.065430	6758.784668
5687.345302	0.097870	0.065430	6850.195312
5687.346206	0.097855	0.065430	6938.656250
5687.347117	0.097712	0.065430	7027.672363
5687.348005	0.097742	0.065430	7114.466797
5687.348943	0.097756	0.065430	7206.162109
5687.349853	0.097753	0.065430	7295.117187
5687.350744	0.097709	0.065430	7382.175781
5687.351665	0.097742	0.065430	7472.195801
5688.409567	0.971796	0.065253	444.110596
5688.410466	1.427051	0.065253	1727.029175
5688.411414	1.431574	0.065253	3084.160889
5688.412335	1.398918	0.065253	4372.564453
5688.413240	1.365264	0.065253	5608.127930
5688.414149	1.012500	0.065253	6528.490234
5688.415080	0.138538	0.065253	6657.468750
5688.415980	0.097679	0.065253	6745.380371
5688.416883	0.097701	0.065253	6833.604980
5688.417774	0.097753	0.065253	6920.702637
5688.418718	0.097830	0.065253	7013.053711
5688.419625	0.097760	0.065253	7101.722168
5688.420514	0.097756	0.065253	7188.627441
5688.421464	0.097859	0.065253	7281.593262
5688.422360	0.097819	0.065253	7369.238770
5688.423259	0.097716	0.065253	7457.085449
5689.418242	1.001070	0.062071	493.527771
5689.419164	1.431617	0.062071	1813.479004
5689.420075	1.430541	0.062071	3116.701660
5689.420969	1.398380	0.062071	4366.853516
5689.421923	1.363872	0.062071	5667.987305
5689.422850	0.948475	0.062071	6547.224121
5689.423749	0.132561	0.062071	6666.396484
5689.424678	0.097632	0.062071	6757.096680
5689.425588	0.097826	0.062071	6846.118164
5689.426486	0.097712	0.062071	6933.863770
5689.427377	0.097800	0.062071	7021.003906
5689.428313	0.097753	0.062071	7112.500488
5689.429220	0.097665	0.062071	7201.082520
5689.430128	0.097760	0.062071	7289.848633
5689.431018	0.097716	0.062071	7376.815918
5689.431957	0.097844	0.062071	7468.691895
5690.471444	1.007296	0.068496	515.735657
5690.472360	1.432152	0.068496	1827.586914
5690.473267	1.430094	0.068496	3124.682129
5690.474158	1.398223	0.068496	4370.498535
5690.475101	1.363649	0.068496	5656.419434
5690.476022	0.956484	0.068496	6537.341797
5690.476917	0.133531	0.068496	6656.852539
5690.477843	0.097654	0.068496	6747.279785
5690.478759	0.097734	0.068496	6836.804687
5690.479674	0.097716	0.068496	6926.214844
5690.480572	0.097804	0.068496	7014.042969
5690.481515	0.097782	0.068496	7106.251465
5690.482414	0.097833	0.068496	7194.203613
5690.483314	0.097778	0.068496	7282.204102
5690.484199	0.097745	0.068496	7368.708984
5690.485125	0.097723	0.068496	7459.200684
5691.490761	0.952844	0.062123	418.298615
5691.491727	1.430361	0.062123	1800.027588
5691.492646	1.430519	0.062123	3114.674316
5691.493543	1.398548	0.062123	4369.172363
5691.494484	1.364495	0.062123	5653.162109
5691.495409	0.963113	0.062123	6544.041504
5691.496312	0.133868	0.062123	6664.924805
5691.497203	0.097636	0.062123	6751.917969
5691.498142	0.097841	0.062123	6843.790039
5691.499047	0.097723	0.062123	6932.229492
5691.499957	0.097826	0.062123	7021.250977
5691.500853	0.097742	0.062123	7108.827637
5691.501804	0.097852	0.062123	7201.884277
5691.502715	0.097701	0.062123	7290.890137
5691.503605	0.097771	0.062123	7377.906250
5691.504541	0.097782	0.062123	7469.430176
5692.539357	0.971909	0.068427	440.274872
5692.540257	1.427142	0.068427	1724.702881
5692.541215	1.431324	0.068427	3095.911621
5692.542123	1.398790	0.068427	4366.013184
5692.543027	1.365370	0.068427	5600.307617
5692.543931	1.018257	0.068427	6520.811523
5692.544870	0.137267	0.068427	6649.705078
5692.545778	0.097555	0.068427	6738.285156
5692.546677	0.097687	0.068427	6826.105469
5692.547593	0.097764	0.068427	6915.657227
5692.548511	0.097793	0.068427	7005.431152
5692.549423	0.097672	0.068427	7094.508301
5692.550316	0.097716	0.068427	7181.768555
5692.551254	0.097705	0.068427	7273.416016
5692.552153	0.097778	0.068427	7361.318848
5692.553057	0.097793	0.068427	7449.723633
5693.557753	0.985529	0.057942	479.952393
5693.558673	1.430746	0.057942	1796.238525
5693.559575	1.430995	0.057942	3086.995850
5693.560469	1.399347	0.057942	4338.011719
5693.561414	1.364626	0.057942	5627.583496
5693.562344	0.972913	0.057942	6532.392090
5693.563243	0.136249	0.057942	6654.879883
5693.564157	0.097573	0.057942	6744.062012
5693.565076	0.097782	0.057942	6833.923828
5693.565985	0.097687	0.057942	6922.721191
5693.566880	0.097745	0.057942	7010.203125
5693.567819	0.097797	0.057942	7102.034180
5693.568721	0.097789	0.057942	7190.240234
5693.569619	0.097764	0.057942	7278.032227
5693.570506	0.097694	0.057942	7364.687012
5693.571444	0.097797	0.057942	7456.420410
5694.613448	0.951226	0.070006	414.734314
5694.614424	1.429186	0.070006	1809.619629
5694.615338	1.430420	0.070006	3117.023437
5694.616246	1.398483	0.070006	4386.845703
5694.617138	1.365099	0.070006	5604.513672
5694.618104	0.962593	0.070006	6534.378418
5694.619006	0.133601	0.070006	6654.886719
5694.619902	0.097584	0.070006	6742.322266
5694.620825	0.097819	0.070006	6832.608887
5694.621734	0.097775	0.070006	6921.485840
5694.622641	0.097690	0.070006	7010.090820
5694.623532	0.097712	0.070006	7097.152344
5694.624483	0.097782	0.070006	7190.143066
5694.625386	0.097841	0.070006	7278.493164
5694.626282	0.097848	0.070006	7366.165039
5694.627169	0.097819	0.070006	7452.930176
5695.621107	0.998141	0.058981	469.126221
5695.622027	1.430065	0.058981	1784.785767
5695.622939	1.431207	0.058981	3090.046875
5695.623838	1.398750	0.058981	4347.522949
5695.624793	1.364484	0.058981	5650.604492
5695.625716	0.968555	0.058981	6544.580566
5695.626604	0.137278	0.058981	6666.483398
5695.627544	0.097720	0.058981	6758.339844
5695.628449	0.097745	0.058981	6846.799316
5695.629344	0.097709	0.058981	6934.248535
5695.630233	0.097676	0.058981	7021.082520
5695.631170	0.097819	0.058981	7112.738770
5695.632075	0.097775	0.058981	7201.224609
5695.632988	0.097742	0.058981	7290.462891
5695.633877	0.097723	0.058981	7377.338867
5695.634815	0.097793	0.058981	7469.068848
5696.689129	0.978798	0.067690	454.162079
5696.690023	1.427523	0.067690	1730.367920
5696.690943	1.431595	0.067690	3047.435547
5696.691873	1.398981	0.067690	4348.487793
5696.692782	1.365472	0.067690	5589.702148
5696.693686	1.032850	0.067690	6523.398926
5696.694630	0.143130	0.067690	6658.513672
5696.695545	0.097617	0.067690	6747.833496
5696.696448	0.097720	0.067690	6836.074219
5696.697339	0.097646	0.067690	6923.077148
5696.698289	0.097797	0.067690	7015.983887
5696.699192	0.097690	0.067690	7104.198242
5696.700081	0.097701	0.067690	7191.054687
5696.701000	0.097654	0.067690	7280.798340
5696.701925	0.097723	0.067690	7371.192383
5696.702833	0.097668	0.067690	7459.875488
5697.682392	0.964402	0.056322	434.945221
5697.683290	1.426381	0.056322	1715.834961
5697.684260	1.430951	0.056322	3103.857422
5697.685168	1.398124	0.056322	4373.353516
5697.686073	1.365062	0.056322	5608.734863
5697.686979	0.984478	0.056322	6500.671387
5697.687925	0.133835	0.056322	6627.279785
5697.688835	0.097588	0.056322	6716.084961
5697.689730	0.097698	0.056322	6803.524414
5697.690657	0.097833	0.056322	6894.215820
5697.691563	0.097804	0.056322	6982.826172
5697.692461	0.097764	0.056322	7070.618164
5697.693347	0.097683	0.056322	7157.165527
5697.694301	0.097756	0.056322	7250.425293
5697.695200	0.097786	0.056322	7338.334473
5697.696099	0.097709	0.056322	7426.174805
5698.764796	0.998654	0.066780	487.342957
5698.765710	1.430647	0.066780	1794.954102
5698.766628	1.430537	0.066780	3108.187012
5698.767533	1.398446	0.066780	4373.780762
5698.768488	1.363583	0.066780	5676.002441
5698.769403	0.951398	0.066780	6546.531250
5698.770298	0.132700	0.066780	6665.297852
5698.771213	0.097584	0.066780	6754.587402
5698.772138	0.097734	0.066780	6844.991699
5698.773037	0.097679	0.066780	6932.805664
5698.773922	0.097672	0.066780	7019.245605
5698.774848	0.097734	0.066780	7109.747559
5698.775759	0.097767	0.066780	7198.813477
5698.776675	0.097778	0.066780	7288.378418
5698.777573	0.097778	0.066780	7376.183594
5698.778529	0.097738	0.066780	7469.621094
5699.746267	0.965958	0.058010	437.579102
5699.747171	1.427271	0.058010	1727.831665
5699.748133	1.430713	0.058010	3104.177246
5699.749031	1.399039	0.058010	4360.514648
5699.749923	1.366007	0.058010	5578.993164
5699.750878	0.986364	0.058010	6520.970215
5699.751797	0.136611	0.058010	6646.516113
5699.752694	0.097566	0.058010	6734.032715
5699.753589	0.097694	0.058010	6821.468750
5699.754543	0.097760	0.058010	6914.731934
5699.755439	0.097657	0.058010	7002.232910
5699.756329	0.097672	0.058010	7089.161133
5699.757278	0.097767	0.058010	7181.942383
5699.758181	0.097723	0.058010	7270.186523
5699.759079	0.097782	0.058010	7357.994629
5699.759967	0.097826	0.058010	7444.864258
5700.838356	0.962227	0.068552	430.115295
5700.839259	1.427153	0.068552	1718.834717
5700.840199	1.431702	0.068552	3064.634277
5700.841115	1.399416	0.068552	4346.500000
5700.842018	1.365916	0.068552	5579.921875
5700.842952	1.014309	0.068552	6527.286621
5700.843843	0.146459	0.068552	6657.781250
5700.844748	0.097526	0.068552	6746.041992
5700.845676	0.097712	0.068552	6836.719238
5700.846596	0.097727	0.068552	6926.627930
5700.847493	0.097643	0.068552	7014.213379
5700.848449	0.097782	0.068552	7107.692871
5700.849355	0.097738	0.068552	7196.243652
5700.850243	0.097643	0.068552	7282.950684
5700.851180	0.097800	0.068552	7374.589355
5700.852093	0.097786	0.068552	7463.867676
5701.811677	0.970701	0.058502	434.873901
5701.812580	1.427322	0.058502	1723.745483
5701.813477	1.432632	0.058502	3008.816162
5701.814418	1.400200	0.058502	4326.404297
5701.815336	1.366066	0.058502	5580.452637
5701.816272	1.010409	0.058502	6526.195312
5701.817159	0.146418	0.058502	6656.068359
5701.818112	0.097548	0.058502	6749.031250
5701.819010	0.097628	0.058502	6836.701172
5701.819927	0.097742	0.058502	6926.330078
5701.820814	0.097687	0.058502	7012.978027
5701.821763	0.097661	0.058502	7105.658203
5701.822668	0.097625	0.058502	7194.008301
5701.823562	0.097727	0.058502	7281.376465
5701.824491	0.097745	0.058502	7372.182129
5701.825400	0.097742	0.058502	7461.029297
5702.909947	0.969199	0.065434	472.000031
5702.910871	1.430636	0.065434	1793.907715
5702.911792	1.430226	0.065434	3111.145752
5702.912688	1.398534	0.065434	4364.232422
5702.913624	1.364337	0.065434	5641.251953
5702.914541	0.965057	0.065434	6526.209473
5702.915440	0.135194	0.065434	6647.749023
5702.916330	0.097599	0.065434	6734.611816
5702.917276	0.097808	0.065434	6827.137695
5702.918185	0.097676	0.065434	6915.924805
5702.919085	0.097694	0.065434	7003.849609
5702.920011	0.097734	0.065434	7094.351562
5702.920913	0.097848	0.065434	7182.610352
5702.921808	0.097716	0.065434	7270.066406
5702.922695	0.097698	0.065434	7356.724121
5702.923632	0.097753	0.065434	7448.318359
5703.878626	0.963018	0.057821	434.320953
5703.879522	1.427087	0.057821	1712.991089
5703.880414	1.432932	0.057821	2991.166504
5703.881361	1.400321	0.057821	4317.270508
5703.882279	1.366227	0.057821	5571.466797
5703.883187	1.043851	0.057821	6519.283691
5703.884116	0.151538	0.057821	6660.062500
5703.885019	0.097654	0.057821	6748.243652
5703.885940	0.097705	0.057821	6838.229980
5703.886831	0.097756	0.057821	6925.331055
5703.887779	0.097760	0.057821	7018.007324
5703.888686	0.097753	0.057821	7106.668945
5703.889593	0.097800	0.057821	7195.374023
5703.890494	0.097672	0.057821	7283.376465
5703.891443	0.097727	0.057821	7376.119629
5703.892345	0.097650	0.057821	7464.200195
5704.979964	0.994999	0.066389	485.559387
5704.980885	1.431409	0.066389	1803.886719
5704.981798	1.430753	0.066389	3110.164307
5704.982693	1.398776	0.066389	4362.068359
5704.983649	1.364022	0.066389	5666.073242
5704.984576	0.945688	0.066389	6542.726562
5704.985467	0.132590	0.066389	6660.864746
5704.986391	0.097610	0.066389	6751.056152
5704.987303	0.097749	0.066389	6840.203125
5704.988212	0.097712	0.066389	6929.023926
5704.989110	0.097734	0.066389	7016.789551
5704.990041	0.097778	0.066389	7107.821289
5704.990952	0.097815	0.066389	7196.930664
5704.991851	0.097753	0.066389	7284.810547
5704.992739	0.097892	0.066389	7371.738281
5704.993685	0.097800	0.066389	7464.257324
5705.948116	0.964885	0.058062	432.268616
5705.949015	1.426805	0.058062	1714.966553
5705.949955	1.431687	0.058062	3060.752441
5705.950874	1.399215	0.058062	4346.630859
5705.951785	1.365721	0.058062	5590.803223
5705.952687	1.022135	0.058062	6512.769043
5705.953640	0.138530	0.058062	6644.788574
5705.954549	0.097474	0.058062	6733.392578
5705.955443	0.097712	0.058062	6820.747559
5705.956367	0.097636	0.058062	6910.962891
5705.957272	0.097885	0.058062	6999.548340
5705.958172	0.097621	0.058062	7087.407227
5705.959060	0.097701	0.058062	7174.166016
5705.960004	0.097830	0.058062	7266.517090
5705.960917	0.097786	0.058062	7355.795410
5705.961833	0.097745	0.058062	7445.330078
5707.047384	0.967134	0.066482	432.308807
5707.048282	1.426377	0.066482	1713.195312
5707.049175	1.432756	0.066482	2992.646729
5707.050120	1.400105	0.066482	4315.746094
5707.051040	1.366388	0.066482	5572.823242
5707.051951	1.044108	0.066482	6524.005371
5707.052876	0.152582	0.066482	6665.143555
5707.053797	0.097716	0.066482	6755.140137
5707.054708	0.097698	0.066482	6844.142578
5707.055607	0.097764	0.066482	6932.032227
5707.056541	0.097892	0.066482	7023.463379
5707.057447	0.097734	0.066482	7112.010742
5707.058346	0.097723	0.066482	7199.864258
5707.059230	0.097789	0.066482	7286.310059
5707.060150	0.097837	0.066482	7376.319824
5707.061058	0.097767	0.066482	7465.092773
5708.019148	0.958455	0.057788	421.720032
5708.020097	1.430054	0.057788	1778.841064
5708.021025	1.430621	0.057788	3106.457764
5708.021928	1.398578	0.057788	4369.373535
5708.022861	1.364993	0.057788	5642.911621
5708.023792	0.970627	0.057788	6546.565430
5708.024697	0.134784	0.057788	6668.544922
5708.025588	0.097588	0.057788	6755.495605
5708.026521	0.097844	0.057788	6846.784180
5708.027431	0.097727	0.057788	6935.715820
5708.028325	0.097698	0.057788	7023.057617
5708.029213	0.097709	0.057788	7109.822754
5708.030152	0.097848	0.057788	7201.702148
5708.031066	0.097731	0.057788	7291.027832
5708.031963	0.097723	0.057788	7378.685547
5708.032895	0.097782	0.057788	7469.818359
5709.113310	0.968298	0.068049	433.797668
5709.114228	1.427769	0.068049	1744.489258
5709.115130	1.432006	0.068049	3036.158203
5709.116055	1.399845	0.068049	4331.014648
5709.116969	1.365904	0.068049	5579.451172
5709.117882	1.036772	0.068049	6526.024414
5709.118765	0.153146	0.068049	6661.251953
5709.119729	0.097617	0.068049	6755.354980
5709.120631	0.097778	0.068049	6843.550781
5709.121536	0.097683	0.068049	6931.954102
5709.122426	0.097775	0.068049	7018.973633
5709.123374	0.097819	0.068049	7111.705566
5709.124280	0.097830	0.068049	7200.339355
5709.125179	0.097819	0.068049	7288.278320
5709.126113	0.097808	0.068049	7379.630859
5709.127021	0.097698	0.068049	7468.340332
5710.092788	0.988473	0.057168	473.478546
5710.093715	1.431108	0.057168	1800.115967
5710.094625	1.430544	0.057168	3101.911377
5710.095520	1.398882	0.057168	4353.910645
5710.096465	1.364454	0.057168	5643.320312
5710.097389	0.970891	0.057168	6540.423828
5710.098276	0.137388	0.057168	6662.286621
5710.099201	0.097639	0.057168	6752.603027
5710.100120	0.097921	0.057168	6842.592773
5710.101031	0.097661	0.057168	6931.562012
5710.101926	0.097727	0.057168	7019.027832
5710.102857	0.097888	0.057168	7110.161621
5710.103761	0.097793	0.057168	7198.566406
5710.104663	0.097701	0.057168	7286.692871
5710.105552	0.097866	0.057168	7373.695801
5710.106495	0.097837	0.057168	7465.956055
5711.177187	0.976908	0.067787	445.470032
5711.178094	1.427552	0.067787	1740.260010
5711.178988	1.432449	0.067787	3020.869141
5711.179934	1.399179	0.067787	4344.492187
5711.180859	1.365275	0.067787	5607.371094
5711.181772	1.011789	0.067787	6531.134766
5711.182657	0.145895	0.067787	6660.251465
5711.183615	0.097654	0.067787	6753.803711
5711.184520	0.097727	0.067787	6842.246582
5711.185410	0.097775	0.067787	6929.266113
5711.186346	0.097841	0.067787	7020.844727
5711.187258	0.097775	0.067787	7110.015137
5711.188154	0.097782	0.067787	7197.627930
5711.189040	0.097753	0.067787	7284.236816
5711.189975	0.097921	0.067787	7375.792969
5711.190880	0.097720	0.067787	7464.229492
5712.167414	0.999547	0.057519	485.779907
5712.168313	1.429457	0.057519	1770.861572
5712.169257	1.430764	0.057519	3121.502930
5712.170166	1.398135	0.057519	4392.407227
5712.171072	1.364897	0.057519	5629.004395
5712.171974	1.001012	0.057519	6531.916992
5712.172911	0.133850	0.057519	6657.334473
5712.173822	0.097537	0.057519	6746.190430
5712.174724	0.097683	0.057519	6834.300781
5712.175638	0.097797	0.057519	6923.687012
5712.176546	0.097866	0.057519	7012.549316
5712.177458	0.097705	0.057519	7101.656250
5712.178346	0.097683	0.057519	7188.398926
5712.179279	0.097800	0.057519	7279.646484
5712.180179	0.097723	0.057519	7367.597656
5712.181085	0.097665	0.057519	7456.082031
5713.238985	0.953818	0.069128	420.633881
5713.239951	1.426948	0.069128	1799.065918
5713.240850	1.430812	0.069128	3085.365723
5713.241772	1.398373	0.069128	4374.665527
5713.242678	1.364949	0.069128	5611.309082
5713.243637	0.952643	0.069128	6524.893555
5713.244551	0.129800	0.069128	6643.530762
5713.245475	0.097562	0.069128	6733.678223
5713.246361	0.097793	0.069128	6820.322754
5713.247312	0.097716	0.069128	6913.250977
5713.248199	0.097690	0.069128	6999.902344
5713.249085	0.097731	0.069128	7086.491699
5713.250031	0.097734	0.069128	7178.948242
5713.250926	0.097712	0.069128	7266.400879
5713.251841	0.097815	0.069128	7355.901367
5713.252738	0.097749	0.069128	7443.582031
5714.244046	0.950636	0.055448	417.329193
5714.244940	1.425220	0.055448	1691.475586
5714.245893	1.431636	0.055448	3055.824463
5714.246805	1.399387	0.055448	4332.065430
5714.247716	1.365886	0.055448	5576.387695
5714.248617	1.020498	0.055448	6495.856445
5714.249560	0.141445	0.055448	6629.239258
5714.250475	0.097621	0.055448	6718.562500
5714.251368	0.097778	0.055448	6805.878418
5714.252301	0.097833	0.055448	6897.156738
5714.253206	0.097852	0.055448	6985.712402
5714.254102	0.097712	0.055448	7073.262695
5714.254989	0.097705	0.055448	7159.927246
5714.255923	0.097782	0.055448	7251.255859
5714.256827	0.097683	0.055448	7339.561523
5714.257730	0.097701	0.055448	7427.786133
5715.302344	0.946150	0.071138	410.629089
5715.303292	1.428669	0.071138	1765.007812
5715.304211	1.430618	0.071138	3079.745605
5715.305138	1.398343	0.071138	4376.009766
5715.306033	1.364835	0.071138	5597.537109
5715.306999	0.960831	0.071138	6525.700195
5715.307894	0.135341	0.071138	6646.830078
5715.308780	0.097573	0.071138	6733.279785
5715.309707	0.097716	0.071138	6823.862793
5715.310613	0.097595	0.071138	6912.284180
5715.311532	0.097603	0.071138	7001.980957
5715.312431	0.097734	0.071138	7089.844238
5715.313368	0.097782	0.071138	7181.465820
5715.314274	0.097723	0.071138	7270.003418
5715.315194	0.097603	0.071138	7359.797852
5715.316081	0.097698	0.071138	7446.455566
5716.318160	0.947721	0.059070	415.101746
5716.319096	1.428735	0.059070	1752.397949
5716.320013	1.431324	0.059070	3064.922363
5716.320917	1.399644	0.059070	4330.200195
5716.321819	1.366084	0.059070	5562.408203
5716.322784	0.995720	0.059070	6523.278320
5716.323694	0.137889	0.059070	6648.757812
5716.324592	0.097595	0.059070	6736.398437
5716.325539	0.097866	0.059070	6829.077637
5716.326432	0.097844	0.059070	6916.452637
5716.327336	0.097760	0.059070	7004.827637
5716.328223	0.097679	0.059070	7091.469238
5716.329153	0.097819	0.059070	7182.440430
5716.330068	0.097749	0.059070	7271.880859
5716.330967	0.097738	0.059070	7359.747559
5716.331881	0.097855	0.059070	7449.187012
5717.367250	0.953778	0.069406	424.431213
5717.368150	1.426403	0.069406	1708.193604
5717.369044	1.432694	0.069406	2989.021973
5717.369987	1.400475	0.069406	4309.669922
5717.370916	1.365930	0.069406	5578.619141
5717.371848	1.015265	0.069406	6524.846191
5717.372735	0.148081	0.069406	6656.193848
5717.373682	0.097555	0.069406	6748.578125
5717.374591	0.097592	0.069406	6837.289062
5717.375479	0.097533	0.069406	6923.898437
5717.376425	0.097679	0.069406	7016.303223
5717.377342	0.097621	0.069406	7105.821777
5717.378257	0.097621	0.069406	7195.145020
5717.379144	0.097727	0.069406	7281.829102
5717.380091	0.097672	0.069406	7374.324707
5717.380991	0.097657	0.069406	7462.216309
5718.389217	0.969492	0.060093	438.210480
5718.390138	1.428032	0.060093	1753.428223
5718.391033	1.431925	0.060093	3035.000977
5718.391971	1.399204	0.060093	4347.454590
5718.392887	1.365330	0.060093	5598.096680
5718.393805	1.014928	0.060093	6529.800781
5718.394694	0.146635	0.060093	6660.158691
5718.395658	0.097577	0.060093	6754.222656
5718.396564	0.097679	0.060093	6842.720215
5718.397470	0.097668	0.060093	6931.208008
5718.398387	0.097804	0.060093	7020.894043
5718.399301	0.097723	0.060093	7110.213379
5718.400209	0.097742	0.060093	7198.962891
5718.401098	0.097614	0.060093	7285.741211
5718.402033	0.097636	0.060093	7377.030273
5718.402941	0.097745	0.060093	7465.783203
5719.437268	0.974941	0.065551	436.773743
5719.438215	1.430197	0.065551	1791.169922
5719.439118	1.430709	0.065551	3083.100342
5719.440076	1.397186	0.065551	4421.604492
5719.440980	1.364165	0.065551	5654.809570
5719.441881	0.987682	0.065551	6544.710937
5719.442824	0.134352	0.065551	6671.404785
5719.443730	0.097537	0.065551	6759.772949
5719.444653	0.097657	0.065551	6849.910645
5719.445540	0.097661	0.065551	6936.536133
5719.446489	0.097577	0.065551	7029.136719
5719.447400	0.097562	0.065551	7118.016113
5719.448290	0.097625	0.065551	7204.901855
5719.449239	0.097668	0.065551	7297.589355
5719.450150	0.097654	0.065551	7386.551758
5719.451050	0.097595	0.065551	7474.387695
5720.455178	1.014488	0.061744	509.273193
5720.456097	1.431423	0.061744	1824.751221
5720.457008	1.430035	0.061744	3127.513428
5720.457899	1.398307	0.061744	4373.404785
5720.458834	1.364015	0.061744	5648.758789
5720.459758	0.966595	0.061744	6541.893066
5720.460656	0.135095	0.061744	6663.208496
5720.461590	0.097621	0.061744	6754.386230
5720.462496	0.097782	0.061744	6842.976562
5720.463396	0.097665	0.061744	6930.875000
5720.464287	0.097709	0.061744	7017.933594
5720.465233	0.097775	0.061744	7110.428223
5720.466137	0.097668	0.061744	7198.720703
5720.467040	0.097636	0.061744	7286.885742
5720.467927	0.097683	0.061744	7373.530762
5720.468865	0.097833	0.061744	7465.298340
5721.512926	0.974202	0.063392	440.339142
5721.513825	1.427018	0.063392	1723.228149
5721.514719	1.432471	0.063392	3003.856934
5721.515674	1.399336	0.063392	4340.222656
5721.516599	1.365220	0.063392	5603.050781
5721.517507	1.016217	0.063392	6525.775879
5721.518405	0.146345	0.063392	6657.193848
5721.519353	0.097551	0.063392	6749.672363
5721.520258	0.097676	0.063392	6838.068848
5721.521147	0.097734	0.063392	6924.954590
5721.522076	0.097749	0.063392	7015.763672
5721.522985	0.097716	0.063392	7104.587402
5721.523883	0.097654	0.063392	7192.280273
5721.524771	0.097617	0.063392	7278.964355
5721.525715	0.097738	0.063392	7371.229004
5721.526621	0.097694	0.063392	7459.739746
5722.514964	1.021714	0.066719	524.139221
5722.515879	1.431958	0.066719	1834.380859
5722.516782	1.430178	0.066719	3125.832031
5722.517678	1.397790	0.066719	4378.251953
5722.518625	1.363418	0.066719	5669.408691
5722.519549	0.953895	0.066719	6550.808105
5722.520442	0.133246	0.066719	6669.796875
5722.521368	0.097577	0.066719	6760.153320
5722.522275	0.097720	0.066719	6848.785156
5722.523184	0.097701	0.066719	6937.595703
5722.524076	0.097687	0.066719	7024.732422
5722.525016	0.097771	0.066719	7116.637207
5722.525920	0.097826	0.066719	7205.071777
5722.526816	0.097643	0.066719	7292.559570
5722.527705	0.097712	0.066719	7379.425781
5722.528636	0.097690	0.066719	7470.375488
5723.593675	0.946633	0.060830	412.732117
5723.594621	1.425886	0.060830	1761.620605
5723.595527	1.431731	0.060830	3058.769043
5723.596430	1.399446	0.060830	4322.468750
5723.597331	1.366776	0.060830	5553.934082
5723.598278	1.017916	0.060830	6517.900879
5723.599187	0.143086	0.060830	6647.965820
5723.600089	0.097496	0.060830	6735.907715
5723.600982	0.097588	0.060830	6823.053711
5723.601935	0.097683	0.060830	6916.145508
5723.602838	0.097603	0.060830	7004.280762
5723.603732	0.097614	0.060830	7091.547363
5723.604672	0.097690	0.060830	7183.376465
5723.605569	0.097654	0.060830	7270.972168
5723.606467	0.097628	0.060830	7358.642090
5723.607360	0.097599	0.060830	7445.797852
5724.571618	0.972316	0.067469	439.486664
5724.572534	1.428376	0.067469	1747.879517
5724.573454	1.431354	0.067469	3064.724854
5724.574359	1.398962	0.067469	4330.785645
5724.575303	1.364762	0.067469	5619.121094
5724.576227	0.991198	0.067469	6534.987793
5724.577119	0.140504	0.067469	6660.317383
5724.578055	0.097646	0.067469	6751.714355
5724.578957	0.097778	0.067469	6839.910156
5724.579859	0.097690	0.067469	6928.026855
5724.580746	0.097672	0.067469	7014.662109
5724.581696	0.097745	0.067469	7107.520020
5724.582593	0.097716	0.067469	7195.171387
5724.583492	0.097753	0.067469	7283.051270
5724.584414	0.097745	0.067469	7373.172363
5724.585333	0.097811	0.067469	7463.061035
5725.675481	0.960436	0.059231	431.235657
5725.676382	1.426857	0.059231	1716.833496
5725.677275	1.432445	0.059231	2996.006836
5725.678224	1.399523	0.059231	4324.153809
5725.679142	1.366040	0.059231	5578.178711
5725.680051	1.040241	0.059231	6523.757324
5725.680973	0.151392	0.059231	6663.340332
5725.681892	0.097606	0.059231	6753.040527
5725.682800	0.097672	0.059231	6841.727051
5725.683692	0.097753	0.059231	6928.922363
5725.684630	0.097819	0.059231	7020.676270
5725.685530	0.097756	0.059231	7108.657227
5725.686427	0.097723	0.059231	7196.314941
5725.687315	0.097756	0.059231	7283.122559
5725.688249	0.097819	0.059231	7374.485352
5725.689160	0.097753	0.059231	7463.538086
5726.630906	0.972191	0.064657	471.512726
5726.631847	1.432262	0.064657	1819.271240
5726.632761	1.429640	0.064657	3125.961914
5726.633663	1.397747	0.064657	4386.729492
5726.634609	1.363455	0.064657	5676.557617
5726.635533	0.929553	0.064657	6535.464844
5726.636433	0.129261	0.064657	6651.800293
5726.637317	0.097595	0.064657	6738.074219
5726.638246	0.097844	0.064657	6828.971680
5726.639158	0.097705	0.064657	6918.078613
5726.640056	0.097716	0.064657	7005.827637
5726.640987	0.097712	0.064657	7096.797852
5726.641898	0.097833	0.064657	7185.923828
5726.642802	0.097646	0.064657	7274.196289
5726.643690	0.097705	0.064657	7360.958496
5726.644638	0.097793	0.064657	7453.666016
5727.748580	0.973890	0.060818	441.172333
5727.749484	1.426926	0.060818	1731.113647
5727.750378	1.432233	0.060818	3011.529785
5727.751334	1.399274	0.060818	4349.235352
5727.752245	1.365340	0.060818	5593.060547
5727.753155	1.024764	0.060818	6525.596191
5727.754065	0.148257	0.060818	6660.509766
5727.754995	0.097606	0.060818	6751.283691
5727.755900	0.097577	0.060818	6839.590820
5727.756800	0.097657	0.060818	6927.482422
5727.757736	0.097723	0.060818	7018.951660
5727.758637	0.097672	0.060818	7106.954102
5727.759542	0.097683	0.060818	7195.357422
5727.760428	0.097734	0.060818	7281.950195
5727.761349	0.097797	0.060818	7372.020996
5727.762263	0.097716	0.060818	7461.333496
5728.697323	0.969478	0.062619	455.654480
5728.698259	1.429977	0.062619	1794.112793
5728.699169	1.430244	0.062619	3095.634766
5728.700072	1.398644	0.062619	4358.610352
5728.701011	1.364224	0.062619	5639.616211
5728.701939	0.964373	0.062619	6534.553711
5728.702841	0.133883	0.062619	6655.316406
5728.703730	0.097636	0.062619	6742.114258
5728.704686	0.097690	0.062619	6835.506348
5728.705596	0.097621	0.062619	6924.341309
5728.706489	0.097742	0.062619	7011.624512
5728.707414	0.097731	0.062619	7102.025391
5728.708319	0.097833	0.062619	7190.564453
5728.709223	0.097672	0.062619	7278.859863
5728.710119	0.097650	0.062619	7366.354492
5728.711049	0.097716	0.062619	7457.230469
5729.816015	0.954521	0.064915	419.034943
5729.816915	1.425707	0.064915	1702.171021
5729.817864	1.431412	0.064915	3060.581299
5729.818789	1.398842	0.064915	4354.509766
5729.819698	1.365337	0.064915	5595.601074
5729.820642	0.987502	0.064915	6527.803223
5729.821542	0.138450	0.064915	6652.408203
5729.822452	0.097474	0.064915	6741.109863
5729.823342	0.097694	0.064915	6828.057617
5729.824274	0.097797	0.064915	6919.204102
5729.825170	0.097742	0.064915	7006.780762
5729.826074	0.097687	0.064915	7095.089844
5729.826964	0.097683	0.064915	7182.027832
5729.827906	0.097793	0.064915	7274.148926
5729.828818	0.097734	0.064915	7363.282715
5729.829720	0.097720	0.064915	7451.425781
5730.771437	0.992820	0.058006	465.632507
5730.772362	1.429680	0.058006	1788.086670
5730.773261	1.431043	0.058006	3074.593750
5730.774205	1.398157	0.058006	4394.453613
5730.775119	1.364388	0.058006	5641.504883
5730.776035	0.979296	0.058006	6538.539551
5730.776927	0.138615	0.058006	6662.183594
5730.777884	0.097665	0.058006	6755.648926
5730.778797	0.097720	0.058006	6844.867187
5730.779692	0.097756	0.058006	6932.358887
5730.780620	0.097690	0.058006	7023.015625
5730.781528	0.097782	0.058006	7111.801758
5730.782429	0.097665	0.058006	7199.797852
5730.783316	0.097742	0.058006	7286.494629
5730.784268	0.097738	0.058006	7379.541016
5730.785161	0.097771	0.058006	7466.850586
5731.877392	1.027401	0.066526	523.974548
5731.878311	1.432134	0.066526	1840.105469
5731.879216	1.429999	0.066526	3134.254395
5731.880108	1.397842	0.066526	4381.128906
5731.881063	1.363385	0.066526	5683.161621
5731.881986	0.944077	0.066526	6554.544922
5731.882878	0.132177	0.066526	6672.446289
5731.883803	0.097654	0.066526	6762.775879
5731.884711	0.097738	0.066526	6851.521973
5731.885613	0.097661	0.066526	6939.612305
5731.886505	0.097632	0.066526	7026.699707
5731.887449	0.097756	0.066526	7118.981934
5731.888351	0.097698	0.066526	7207.105469
5731.889250	0.097679	0.066526	7294.919434
5731.890135	0.097687	0.066526	7381.372070
5731.891080	0.097789	0.066526	7473.783203
5732.850691	1.013481	0.056222	492.551941
5732.851613	1.431317	0.056222	1812.226318
5732.852523	1.430482	0.056222	3113.965332
5732.853416	1.398472	0.056222	4362.800781
5732.854373	1.363656	0.056222	5667.819336
5732.855302	0.950259	0.056222	6550.609863
5732.856195	0.133597	0.056222	6669.912598
5732.857144	0.097570	0.056222	6762.506348
5732.858043	0.097720	0.056222	6850.356445
5732.858943	0.097756	0.056222	6938.336914
5732.859829	0.097727	0.056222	7024.922852
5732.860764	0.097782	0.056222	7116.349121
5732.861668	0.097712	0.056222	7204.681152
5732.862573	0.097683	0.056222	7293.084473
5732.863463	0.097709	0.056222	7380.045410
5732.864400	0.097789	0.056222	7471.673828
5733.937161	1.015371	0.069318	505.654785
5733.938076	1.431215	0.069318	1815.216064
5733.938983	1.430709	0.069318	3112.869385
5733.939877	1.398516	0.069318	4363.142578
5733.940823	1.364337	0.069318	5653.805664
5733.941751	0.968481	0.069318	6552.556641
5733.942640	0.136366	0.069318	6673.786133
5733.943576	0.097639	0.069318	6765.176270
5733.944494	0.097841	0.069318	6854.994141
5733.945391	0.097687	0.069318	6942.619141
5733.946288	0.097745	0.069318	7030.296875
5733.947230	0.097793	0.069318	7122.417969
5733.948133	0.097690	0.069318	7210.632324
5733.949032	0.097742	0.069318	7298.501953
5733.949918	0.097848	0.069318	7385.195312
5733.950859	0.097793	0.069318	7477.218262
5734.927315	0.959524	0.056512	426.028625
5734.928231	1.426849	0.056512	1733.022705
5734.929133	1.432390	0.056512	3025.038574
5734.930062	1.400215	0.056512	4325.838379
5734.930986	1.366051	0.056512	5588.069336
5734.931914	1.009834	0.056512	6525.195312
5734.932806	0.145792	0.056512	6655.242187
5734.933744	0.097617	0.056512	6746.807129
5734.934646	0.097661	0.056512	6834.897461
5734.935553	0.097665	0.056512	6923.479492
5734.936444	0.097698	0.056512	7010.528320
5734.937401	0.097837	0.056512	7104.158203
5734.938306	0.097701	0.056512	7192.578125
5734.939206	0.097800	0.056512	7280.598633
5734.940143	0.097672	0.056512	7372.117187
5734.941051	0.097815	0.056512	7460.933105
5735.999439	0.950610	0.069535	417.317932
5736.000387	1.429398	0.069535	1772.387451
5736.001306	1.430753	0.069535	3087.249512
5736.002214	1.398765	0.069535	4357.327637
5736.003108	1.365092	0.069535	5577.719727
5736.004082	0.971495	0.069535	6523.956055
5736.004990	0.134388	0.069535	6645.980957
5736.005885	0.097482	0.069535	6733.227051
5736.006819	0.097712	0.069535	6824.490234
5736.007725	0.097760	0.069535	6913.061035
5736.008628	0.097625	0.069535	7001.215820
5736.009513	0.097727	0.069535	7087.704102
5736.010439	0.097771	0.069535	7178.240234
5736.011347	0.097690	0.069535	7266.943359
5736.012252	0.097665	0.069535	7355.330078
5736.013144	0.097745	0.069535	7442.519043
5737.001931	0.953324	0.056943	419.462555
5737.002824	1.425209	0.056943	1692.173828
5737.003795	1.431280	0.056943	3081.947266
5737.004708	1.398519	0.056943	4358.795410
5737.005613	1.365300	0.056943	5594.392090
5737.006540	1.006402	0.056943	6527.327148
5737.007435	0.143884	0.056943	6656.103516
5737.008393	0.097485	0.056943	6749.494629
5737.009318	0.097723	0.056943	6839.888672
5737.010207	0.097672	0.056943	6926.719238
5737.011161	0.097723	0.056943	7019.947266
5737.012067	0.097595	0.056943	7108.368652
5737.012985	0.097628	0.056943	7197.991211
5737.013872	0.097625	0.056943	7284.583984
5737.014808	0.097698	0.056943	7376.029297
5737.015720	0.097661	0.056943	7465.096191
5738.065353	0.954119	0.067900	420.766327
5738.066245	1.425143	0.067900	1691.993774
5738.067227	1.430511	0.067900	3096.755859
5738.068156	1.397596	0.067900	4395.123047
5738.069060	1.364418	0.067900	5628.556641
5738.069999	0.969122	0.067900	6538.562500
5738.070908	0.132766	0.067900	6659.247070
5738.071808	0.097504	0.067900	6747.000488
5738.072696	0.097701	0.067900	6833.759277
5738.073642	0.097822	0.067900	6926.299316
5738.074545	0.097756	0.067900	7014.573242
5738.075438	0.097636	0.067900	7101.761719
5738.076343	0.097782	0.067900	7190.254395
5738.077285	0.097819	0.067900	7282.399414
5738.078189	0.097643	0.067900	7370.668457
5738.079086	0.097723	0.067900	7458.326172
5739.074517	0.962563	0.058058	432.190979
5739.075413	1.426652	0.058058	1710.470703
5739.076356	1.432016	0.058058	3060.862305
5739.077282	1.398981	0.058058	4356.318359
5739.078191	1.365384	0.058058	5597.453125
5739.079099	1.027079	0.058058	6530.040527
5739.080048	0.137897	0.058058	6660.904297
5739.080949	0.097621	0.058058	6748.860840
5739.081848	0.097705	0.058058	6836.697754
5739.082733	0.097679	0.058058	6923.144043
5739.083677	0.097837	0.058058	7015.501953
5739.084583	0.097731	0.058058	7104.045898
5739.085483	0.097720	0.058058	7191.993652
5739.086422	0.097749	0.058058	7283.779785
5739.087327	0.097793	0.058058	7372.282227
5739.088228	0.097632	0.058058	7460.248535
5740.130814	1.007465	0.069036	493.657623
5740.131733	1.430662	0.069036	1808.435547
5740.132663	1.430046	0.069036	3138.378662
5740.133557	1.397703	0.069036	4387.924805
5740.134518	1.363044	0.069036	5697.810547
5740.135427	0.943206	0.069036	6555.184570
5740.136313	0.132620	0.069036	6672.685547
5740.137246	0.097595	0.069036	6763.741699
5740.138155	0.097720	0.069036	6852.568848
5740.139072	0.097646	0.069036	6942.110840
5740.139966	0.097687	0.069036	7029.442871
5740.140913	0.097720	0.069036	7121.983398
5740.141827	0.097701	0.069036	7211.282715
5740.142738	0.097756	0.069036	7300.338867
5740.143626	0.097793	0.069036	7387.179199
5740.144572	0.097767	0.069036	7479.666992
5741.144534	0.964438	0.057164	432.068451
5741.145431	1.426534	0.057164	1711.669800
5741.146380	1.431603	0.057164	3070.260742
5741.147300	1.398911	0.057164	4357.258789
5741.148216	1.365157	0.057164	5607.743164
5741.149122	1.011808	0.057164	6524.440918
5741.150077	0.134205	0.057164	6652.606934
5741.150982	0.097592	0.057164	6740.927246
5741.151869	0.097731	0.057164	6827.614258
5741.152795	0.097760	0.057164	6918.140137
5741.153707	0.097855	0.057164	7007.384277
5741.154610	0.097690	0.057164	7095.598633
5741.155506	0.097701	0.057164	7183.139160
5741.156438	0.097830	0.057164	7274.316406
5741.157344	0.097852	0.057164	7362.969727
5741.158252	0.097771	0.057164	7451.745605
5742.200785	0.959268	0.069712	423.996277
5742.201702	1.426450	0.069712	1732.051270
5742.202603	1.432288	0.069712	3022.542480
5742.203534	1.400185	0.069712	4326.115234
5742.204457	1.365743	0.069712	5586.696289
5742.205366	1.043987	0.069712	6535.680176
5742.206253	0.154373	0.069712	6672.608398
5742.207190	0.097625	0.069712	6764.082520
5742.208101	0.097646	0.069712	6853.038574
5742.209019	0.097778	0.069712	6942.798828
5742.209912	0.097712	0.069712	7030.056152
5742.210864	0.097694	0.069712	7123.061035
5742.211764	0.097712	0.069712	7211.001953
5742.212652	0.097679	0.069712	7297.741211
5742.213596	0.097723	0.069712	7389.992187
5742.214502	0.097657	0.069712	7478.469727
5743.212518	0.967621	0.057116	450.911316
5743.213470	1.431584	0.057116	1813.779785
5743.214387	1.429695	0.057116	3124.810059
5743.215294	1.397648	0.057116	4392.476562
5743.216238	1.363425	0.057116	5679.549805
5743.217162	0.934131	0.057116	6542.686523
5743.218072	0.128093	0.057116	6659.251465
5743.218960	0.097628	0.057116	6745.945312
5743.219902	0.097738	0.057116	6838.014648
5743.220809	0.097738	0.057116	6926.663086
5743.221698	0.097731	0.057116	7013.545898
5743.222628	0.097767	0.057116	7104.469727
5743.223532	0.097760	0.057116	7192.844727
5743.224442	0.097676	0.057116	7281.729492
5743.225342	0.097811	0.057116	7369.759766
5743.226272	0.097797	0.057116	7460.710449
5744.270288	0.955232	0.069382	422.212524
5744.271189	1.425839	0.069382	1706.893066
5744.272083	1.432430	0.069382	2987.485840
5744.273025	1.400156	0.069382	4306.433105
5744.273946	1.366351	0.069382	5564.842773
5744.274848	1.056841	0.069382	6518.113281
5744.275758	0.156489	0.069382	6660.518555
5744.276679	0.097625	0.069382	6750.430664
5744.277589	0.097694	0.069382	6839.332520
5744.278479	0.097672	0.069382	6926.260742
5744.279414	0.097793	0.069382	7017.697266
5744.280320	0.097852	0.069382	7106.350586
5744.281216	0.097767	0.069382	7193.950195
5744.282110	0.097709	0.069382	7281.301758
5744.283047	0.097782	0.069382	7372.923340
5744.283956	0.097679	0.069382	7461.713867
5745.279955	0.963779	0.055613	428.881775
5745.280874	1.427424	0.055613	1740.684814
5745.281774	1.432222	0.055613	3029.684326
5745.282718	1.399135	0.055613	4350.467285
5745.283636	1.365238	0.055613	5603.755859
5745.284548	1.021457	0.055613	6535.325195
5745.285432	0.148868	0.055613	6666.924805
5745.286365	0.097639	0.055613	6758.021973
5745.287282	0.097683	0.055613	6847.597168
5745.288179	0.097723	0.055613	6935.254883
5745.289115	0.097760	0.055613	7026.758301
5745.290017	0.097745	0.055613	7114.924805
5745.290916	0.097720	0.055613	7202.774902
5745.291805	0.097694	0.055613	7289.625000
5745.292751	0.097833	0.055613	7382.175293
5745.293656	0.097679	0.055613	7470.575195
5746.343893	0.966683	0.068742	435.007507
5746.344789	1.426205	0.068742	1712.887207
5746.345724	1.431749	0.068742	3051.572754
5746.346640	1.399504	0.068742	4333.518555
5746.347554	1.365765	0.068742	5581.828125
5746.348459	1.043405	0.068742	6526.109375
5746.349410	0.139471	0.068742	6658.746582
5746.350318	0.097639	0.068742	6747.402832
5746.351219	0.097716	0.068742	6835.444824
5746.352104	0.097745	0.068742	6921.949707
5746.353041	0.097734	0.068742	7013.526855
5746.353949	0.097701	0.068742	7102.239746
5746.354845	0.097636	0.068742	7189.721191
5746.355771	0.097789	0.068742	7280.273926
5746.356687	0.097841	0.068742	7369.895996
5746.357593	0.097628	0.068742	7458.347168
5747.344839	0.949823	0.054788	414.122803
5747.345795	1.428098	0.054788	1779.384521
5747.346712	1.430966	0.054788	3091.580078
5747.347618	1.398794	0.054788	4358.887207
5747.348511	1.365407	0.054788	5578.195312
5747.349474	0.983621	0.054788	6525.421875
5747.350383	0.137809	0.054788	6650.689941
5747.351273	0.097592	0.054788	6737.546387
5747.352198	0.097764	0.054788	6827.977539
5747.353109	0.097793	0.054788	6917.066895
5747.354019	0.097764	0.054788	7006.031738
5747.354916	0.097679	0.054788	7093.650391
5747.355854	0.097786	0.054788	7185.373535
5747.356757	0.097753	0.054788	7273.644043
5747.357658	0.097756	0.054788	7361.722656
5747.358581	0.097643	0.054788	7451.847168
5748.416980	0.958740	0.069080	426.639435
5748.417877	1.425978	0.069080	1705.741455
5748.418824	1.431727	0.069080	3061.587158
5748.419744	1.399138	0.069080	4348.794434
5748.420652	1.365721	0.069080	5588.869629
5748.421554	1.037908	0.069080	6525.062500
5748.422512	0.136655	0.069080	6655.978027
5748.423412	0.097584	0.069080	6743.803711
5748.424306	0.097584	0.069080	6831.043945
5748.425189	0.097789	0.069080	6917.392090
5748.426140	0.097811	0.069080	7010.410645
5748.427041	0.097753	0.069080	7098.485840
5748.427935	0.097760	0.069080	7185.883301
5748.428872	0.097723	0.069080	7277.450195
5748.429775	0.097804	0.069080	7365.767090
5748.430674	0.097614	0.069080	7453.521484
5749.406214	0.974758	0.056487	486.404419
5749.407141	1.432225	0.056487	1814.077271
5749.408047	1.430035	0.056487	3109.689453
5749.408947	1.398084	0.056487	4367.964844
5749.409883	1.363791	0.056487	5644.473633
5749.410805	0.948746	0.056487	6519.217773
5749.411724	0.128965	0.056487	6637.736328
5749.412612	0.097606	0.056487	6724.410645
5749.413566	0.097690	0.056487	6817.607422
5749.414465	0.097760	0.056487	6905.493652
5749.415355	0.097668	0.056487	6992.418457
5749.416289	0.097775	0.056487	7083.740234
5749.417186	0.097709	0.056487	7171.384766
5749.418109	0.097617	0.056487	7261.485352
5749.419006	0.097709	0.056487	7349.129883
5749.419930	0.097720	0.056487	7439.422852
5750.494166	0.957488	0.064762	421.294647
5750.495064	1.425945	0.064762	1701.793091
5750.496030	1.430955	0.064762	3084.095215
5750.496944	1.398688	0.064762	4362.496094
5750.497847	1.364886	0.064762	5594.988281
5750.498783	0.990330	0.064762	6521.936523
5750.499678	0.139717	0.064762	6646.982910
5750.500633	0.097584	0.064762	6740.175781
5750.501553	0.097636	0.064762	6830.000488
5750.502441	0.097657	0.064762	6916.720215
5750.503401	0.097657	0.064762	7010.471191
5750.504301	0.097646	0.064762	7098.353027
5750.505192	0.097668	0.064762	7185.375488
5750.506129	0.097668	0.064762	7276.890625
5750.507044	0.097657	0.064762	7366.247070
5750.507945	0.097749	0.064762	7454.318848
5751.466968	0.970250	0.057414	438.553101
5751.467866	1.426468	0.057414	1719.521851
5751.468812	1.431357	0.057414	3073.585937
5751.469729	1.398728	0.057414	4356.219727
5751.470639	1.365480	0.057414	5598.806641
5751.471541	1.008721	0.057414	6508.672852
5751.472486	0.137611	0.057414	6638.715332
5751.473391	0.097628	0.057414	6727.068848
5751.474281	0.097606	0.057414	6813.938477
5751.475228	0.097720	0.057414	6906.479004
5751.476135	0.097716	0.057414	6995.107422
5751.477030	0.097683	0.057414	7082.533691
5751.477921	0.097639	0.057414	7169.530273
5751.478856	0.097720	0.057414	7260.898437
5751.479762	0.097716	0.057414	7349.429199
5751.480664	0.097720	0.057414	7437.572266
5752.570823	0.945088	0.064540	408.277985
5752.571759	1.425828	0.064540	1742.852661
5752.572676	1.431533	0.064540	3055.568604
5752.573583	1.399629	0.064540	4325.032227
5752.574480	1.366575	0.064540	5550.849609
5752.575449	1.003132	0.064540	6522.884766
5752.576349	0.141141	0.064540	6649.912109
5752.577252	0.097533	0.064540	6737.984375
5752.578139	0.097625	0.064540	6824.577148
5752.579084	0.097745	0.064540	6916.946289
5752.579989	0.097628	0.064540	7005.299805
5752.580878	0.097621	0.064540	7092.084961
5752.581809	0.097837	0.064540	7183.170898
5752.582713	0.097786	0.064540	7271.569336
5752.583611	0.097625	0.064540	7359.236328
5752.584503	0.097617	0.064540	7446.311035
5753.529303	0.962238	0.060020	428.195709
5753.530208	1.426219	0.060020	1718.924316
5753.531104	1.432584	0.060020	3002.519775
5753.532067	1.399193	0.060020	4349.942871
5753.532982	1.365469	0.060020	5599.346680
5753.533894	1.022358	0.060020	6531.737305
5753.534808	0.146887	0.060020	6665.992187
5753.535748	0.097570	0.060020	6757.707520
5753.536655	0.097712	0.060020	6846.332520
5753.537548	0.097734	0.060020	6933.609375
5753.538471	0.097855	0.060020	7023.929687
5753.539374	0.097906	0.060020	7112.339355
5753.540275	0.097690	0.060020	7200.358398
5753.541164	0.097723	0.060020	7287.234375
5753.542105	0.097800	0.060020	7379.264648
5753.543014	0.097716	0.060020	7468.088379
5754.644997	0.996398	0.063561	495.209686
5754.645911	1.430944	0.063561	1803.092163
5754.646810	1.430581	0.063561	3089.184570
5754.647705	1.398735	0.063561	4341.052734
5754.648653	1.364315	0.063561	5634.423340
5754.649579	0.972711	0.063561	6535.153809
5754.650478	0.135524	0.063561	6656.989746
5754.651401	0.097562	0.063561	6747.039551
5754.652328	0.097731	0.063561	6837.635742
5754.653233	0.097701	0.063561	6926.055664
5754.654126	0.097716	0.063561	7013.315918
5754.655062	0.097786	0.063561	7104.843262
5754.655973	0.097720	0.063561	7193.865723
5754.656870	0.097628	0.063561	7281.437988
5754.657763	0.097646	0.063561	7368.636230
5754.658692	0.097797	0.063561	7459.489258
5755.597259	0.952361	0.061043	418.086426
5755.598209	1.426985	0.061043	1773.721924
5755.599120	1.431174	0.061043	3077.521729
5755.600024	1.399376	0.061043	4342.557617
5755.600916	1.366186	0.061043	5561.195801
5755.601879	1.000031	0.061043	6524.225098
5755.602775	0.141134	0.061043	6650.681152
5755.603680	0.097540	0.061043	6738.955078
5755.604575	0.097760	0.061043	6826.450195
5755.605520	0.097855	0.061043	6918.923340
5755.606426	0.097705	0.061043	7007.444336
5755.607322	0.097687	0.061043	7094.971680
5755.608247	0.097778	0.061043	7185.416504
5755.609145	0.097760	0.061043	7273.205078
5755.610041	0.097679	0.061043	7360.726074
5755.610929	0.097701	0.061043	7447.484863
5756.712399	0.957546	0.062192	421.320404
5756.713309	1.426212	0.062192	1719.173584
5756.714206	1.432126	0.062192	3003.791016
5756.715177	1.398739	0.062192	4361.966797
5756.716090	1.365000	0.062192	5608.211914
5756.716994	1.020322	0.062192	6530.583496
5756.717923	0.146510	0.062192	6666.691406
5756.718828	0.097606	0.062192	6755.024902
5756.719732	0.097654	0.062192	6843.303711
5756.720631	0.097709	0.062192	6931.144043
5756.721566	0.097749	0.062192	7022.539551
5756.722474	0.097760	0.062192	7111.305664
5756.723375	0.097753	0.062192	7199.380859
5756.724264	0.097705	0.062192	7286.240723
5756.725216	0.097745	0.062192	7379.294434
5756.726121	0.097749	0.062192	7467.757324
5757.670365	0.963252	0.064371	430.573608
5757.671271	1.427223	0.064371	1723.637573
5757.672214	1.431387	0.064371	3073.435059
5757.673130	1.398647	0.064371	4354.596191
5757.674058	1.364729	0.064371	5621.064453
5757.674962	1.007677	0.064371	6532.004395
5757.675916	0.133572	0.064371	6659.431641
5757.676812	0.097478	0.064371	6746.771973
5757.677697	0.097734	0.064371	6833.267090
5757.678610	0.097694	0.064371	6922.461914
5757.679541	0.097632	0.064371	7013.356934
5757.680446	0.097665	0.064371	7101.743652
5757.681340	0.097676	0.064371	7189.065918
5757.682275	0.097738	0.064371	7280.451172
5757.683179	0.097661	0.064371	7368.736816
5757.684096	0.097698	0.064371	7458.325684
5758.775294	0.970239	0.061869	474.446991
5758.776224	1.431617	0.061869	1805.851196
5758.777130	1.430314	0.061869	3101.715332
5758.778028	1.398420	0.061869	4357.497070
5758.778984	1.363553	0.061869	5661.054199
5758.779891	0.951042	0.061869	6523.649902
5758.780819	0.129569	0.061869	6643.890137
5758.781711	0.097610	0.061869	6730.958008
5758.782662	0.097694	0.061869	6823.865234
5758.783557	0.097636	0.061869	6911.249023
5758.784447	0.097668	0.061869	6998.173828
5758.785381	0.097643	0.061869	7089.372070
5758.786284	0.097683	0.061869	7177.580078
5758.787199	0.097646	0.061869	7266.926758
5758.788097	0.097636	0.061869	7354.603516
5758.789059	0.097643	0.061869	7448.536133
5759.748572	0.974015	0.064637	439.280701
5759.749472	1.426934	0.064637	1723.520996
5759.750368	1.432694	0.064637	3007.214844
5759.751317	1.399471	0.064637	4335.313477
5759.752234	1.365469	0.064637	5587.448242
5759.753155	1.020249	0.064637	6527.097656
5759.754042	0.147645	0.064637	6658.059082
5759.754980	0.097639	0.064637	6749.644531
5759.755888	0.097657	0.064637	6838.317383
5759.756783	0.097650	0.064637	6925.714355
5759.757719	0.097654	0.064637	7017.118164
5759.758614	0.097738	0.064637	7104.593750
5759.759513	0.097595	0.064637	7192.332031
5759.760408	0.097694	0.064637	7279.768066
5759.761344	0.097745	0.064637	7371.257812
5759.762252	0.097690	0.064637	7459.960937
5760.833528	0.997306	0.063058	481.698730
5760.834429	1.429413	0.063058	1769.599731
5760.835373	1.430215	0.063058	3119.722656
5760.836283	1.397765	0.063058	4391.688477
5760.837199	1.363839	0.063058	5640.964844
5760.838104	0.974451	0.063058	6522.842773
5760.839063	0.127753	0.063058	6645.357422
5760.839963	0.097551	0.063058	6733.153320
5760.840852	0.097720	0.063058	6820.026367
5760.841783	0.097727	0.063058	6911.010254
5760.842687	0.097668	0.063058	6999.302734
5760.843586	0.097727	0.063058	7087.159180
5760.844475	0.097764	0.063058	7174.071289
5760.845401	0.097811	0.063058	7264.644531
5760.846305	0.097716	0.063058	7352.979980
5760.847199	0.097778	0.063058	7440.393555
5761.826763	0.948571	0.066087	413.576752
5761.827716	1.428146	0.066087	1774.599731
5761.828631	1.431215	0.066087	3084.161133
5761.829536	1.399138	0.066087	4350.381348
5761.830431	1.365699	0.066087	5572.682617
5761.831393	0.989648	0.066087	6524.724609
5761.832299	0.138391	0.066087	6650.106934
5761.833193	0.097679	0.066087	6737.432129
5761.834131	0.097793	0.066087	6829.162109
5761.835029	0.097874	0.066087	6917.052734
5761.835924	0.097808	0.066087	7004.590332
5761.836814	0.097771	0.066087	7091.606445
5761.837747	0.097775	0.066087	7182.830078
5761.838643	0.097778	0.066087	7270.439453
5761.839541	0.097793	0.066087	7358.257324
5761.840434	0.097709	0.066087	7445.511230
5762.893772	0.968434	0.064137	425.142456
5762.894744	1.431350	0.064137	1816.414795
5762.895659	1.430328	0.064137	3125.165283
5762.896558	1.398223	0.064137	4382.167480
5762.897497	1.364421	0.064137	5663.359375
5762.898417	0.965991	0.064137	6552.071289
5762.899311	0.136088	0.064137	6673.733398
5762.900199	0.097595	0.064137	6760.397949
5762.901123	0.097874	0.064137	6850.833008
5762.902029	0.097749	0.064137	6939.393555
5762.902929	0.097800	0.064137	7027.414062
5762.903831	0.097804	0.064137	7115.633301
5762.904760	0.097874	0.064137	7206.557617
5762.905670	0.097756	0.064137	7295.516113
5762.906561	0.097767	0.064137	7382.626953
5762.907505	0.097837	0.064137	7474.984863
5763.903995	0.984770	0.061930	478.598450
5763.904925	1.431709	0.061930	1810.087646
5763.905836	1.430233	0.061930	3113.030029
5763.906736	1.398168	0.061930	4371.380859
5763.907692	1.363228	0.061930	5674.626465
5763.908605	0.945176	0.061930	6537.571777
5763.909507	0.131887	0.061930	6656.534180
5763.910403	0.097529	0.061930	6743.920410
5763.911335	0.097679	0.061930	6834.957520
5763.912244	0.097654	0.061930	6923.724609
5763.913140	0.097698	0.061930	7011.261719
5763.914070	0.097749	0.061930	7102.168457
5763.914978	0.097698	0.061930	7190.877930
5763.915884	0.097764	0.061930	7279.451660
5763.916771	0.097705	0.061930	7366.116211
5763.917710	0.097749	0.061930	7457.902344
