time (s)	energy (uJ)	charge (mC)	voltage (mV)	crossing#mod 255
7756.962166	11.059913	20.161957	0.548554	107
7758.039179	17.356583	20.160381	0.860925	108
7759.043400	11.841024	20.147228	0.587725	109
7760.099115	15.961682	20.165880	0.791519	110
7761.124151	11.994425	20.152008	0.595197	111
7762.163802	14.528979	20.140564	0.721379	112
7763.193038	12.553545	20.146627	0.623109	113
7764.239011	15.105419	20.160244	0.749268	114
7765.251355	14.830239	20.174040	0.735115	115
7766.324310	13.888383	20.151953	0.689183	116
7767.308579	15.697418	20.158752	0.778690	117
7768.408555	13.614188	20.147383	0.675730	118
7769.366858	12.706136	20.155853	0.630394	119
7770.480046	14.939780	20.148670	0.741477	120
7771.442791	11.756407	20.152742	0.583365	121
7772.541644	16.499002	20.153473	0.818668	122
7773.525983	11.662023	20.134928	0.579194	123
7774.598547	15.798151	20.147905	0.784109	124
7775.608967	11.475040	20.164391	0.569075	125
7776.660033	16.420012	20.177999	0.813758	126
7777.683672	11.758526	20.153894	0.583437	127
7778.728599	15.662342	20.162981	0.776787	128
7779.756234	11.730209	20.155485	0.581986	129
7780.796992	14.366994	20.161022	0.712612	130
7781.843046	14.117059	20.154896	0.700428	131
7782.867825	14.900974	20.145008	0.739686	132
7783.895389	13.607932	20.154013	0.675197	133
7784.937719	14.302459	20.137871	0.710227	134
7785.964970	11.874683	20.151800	0.589262	135
7787.007938	14.029101	20.139967	0.696580	136
7788.037003	10.983907	20.158316	0.544882	137
7789.077962	15.067986	20.139412	0.748184	138
7790.104106	11.454016	20.154922	0.568299	139
7791.149980	15.164907	20.163790	0.752086	140
7792.172915	10.776781	20.149061	0.534853	141
7793.224343	15.142385	20.151121	0.751441	142
7794.235245	11.137231	20.158257	0.552490	143
7795.303503	14.720756	20.137249	0.731021	144
7796.293916	11.151917	20.122713	0.554196	145
7797.401722	16.672709	20.148693	0.827483	146
7798.353959	10.496632	20.160683	0.520649	147
7799.461193	14.496672	20.140253	0.719786	148
7800.424499	12.290434	20.152252	0.609879	149
7801.527504	13.058540	20.132998	0.648614	150
7802.501778	12.779962	20.154001	0.634115	151
7803.586524	12.493230	20.129526	0.620642	152
7804.584985	13.361045	20.158390	0.662803	153
7805.643534	14.245002	20.156986	0.706703	154
7806.663133	12.527249	20.158953	0.621424	155
7807.706456	13.372185	20.154318	0.663490	156
7808.738056	11.191476	20.158979	0.555161	157
7809.777989	14.392303	20.138243	0.714675	158
7810.804871	10.761569	20.145214	0.534200	159
7811.852461	14.520739	20.133942	0.721207	160
7812.869569	10.593657	20.144354	0.525887	161
7813.927804	15.111573	20.154272	0.749795	162
7814.949984	12.929571	20.142981	0.641890	163
7816.002646	14.184491	20.156229	0.703727	164
7816.998128	11.325111	20.131296	0.562562	165
7818.076530	14.175714	20.145245	0.703675	166
7819.065751	11.162642	20.143463	0.554157	167
7820.149169	15.257963	20.149038	0.757255	168
7821.134147	10.609292	20.138721	0.526811	169
7822.218717	13.742270	20.142746	0.682244	170
7823.205516	9.878508	20.150824	0.490229	171
7824.286594	14.414511	20.142513	0.715626	172
7825.276994	10.220106	20.136507	0.507541	173
7826.352114	14.160306	20.153423	0.702625	174
7827.352889	10.243861	20.139177	0.508653	175
7828.418330	14.467572	20.145491	0.718154	176
7829.429514	10.838543	20.140440	0.538148	177
7830.481568	14.209669	20.162148	0.704770	178
7831.505039	10.380224	20.143192	0.515322	179
7832.547366	14.386076	20.137136	0.714405	180
7833.594501	13.296567	20.153030	0.659780	181
7834.616224	13.110950	20.140892	0.650962	182
7835.646405	11.945578	20.133570	0.593316	183
7836.689526	13.033797	20.138048	0.647223	184
7837.709362	13.098387	20.135801	0.650502	185
7838.768453	10.870915	20.136658	0.539857	186
7839.769085	11.686190	20.136101	0.580360	187
7840.849822	11.739960	20.144007	0.582802	188
7841.828540	11.976147	20.130302	0.594931	189
7842.943668	15.033514	20.147114	0.746187	190
7843.893980	11.626587	20.164045	0.576600	191
7844.997392	13.842107	20.150860	0.686924	192
7845.965377	9.685655	20.140059	0.480915	193
7847.061978	13.671914	20.122379	0.679438	194
7848.044425	9.948888	20.116182	0.494571	195
7849.121560	14.512179	20.151138	0.720167	196
7850.123086	9.963746	20.144958	0.494603	197
7851.183916	14.335304	20.133574	0.712010	198
7852.198520	9.527005	20.143354	0.472960	199
7853.250860	13.090409	20.138477	0.650020	200
7854.272622	10.336160	20.150352	0.512952	201
7855.318541	12.677067	20.132452	0.629683	202
7856.344074	10.298899	20.137434	0.511431	203
7857.386844	13.551828	20.116529	0.673666	204
7858.412786	10.363868	20.149015	0.514361	205
7859.456722	13.375381	20.135250	0.664277	206
7860.482297	9.308059	20.147997	0.461984	207
7861.545136	15.648197	20.146173	0.776733	208
7862.548701	10.256845	20.134092	0.509427	209
7863.601740	12.860881	20.138472	0.638623	210
7864.614696	9.485188	20.132761	0.471132	211
7865.675556	14.310240	20.132290	0.710810	212
7866.675521	10.808325	20.124754	0.537066	213
7867.753924	12.646795	20.134995	0.628100	214
7868.737728	10.277598	20.156879	0.509880	215
7869.830660	12.665671	20.145325	0.628715	216
7870.804570	8.850009	20.144928	0.439317	217
7871.903356	12.052999	20.138550	0.598504	218
7872.872629	10.893383	20.136009	0.540990	219
7873.969398	11.495428	20.130421	0.571048	220
7874.949153	11.266816	20.133482	0.559606	221
7876.032649	11.762797	20.131983	0.584284	222
7877.028312	12.259432	20.117468	0.609392	223
7878.092742	11.717515	20.145491	0.581645	224
7879.105925	10.804996	20.124376	0.536911	225
7880.156189	11.206945	20.141516	0.556410	226
7881.180459	11.851028	20.162069	0.587788	227
7882.220578	12.056993	20.141285	0.598621	228
7883.252584	10.635142	20.158888	0.527566	229
7884.291816	11.826088	20.135296	0.587331	230
7885.339325	12.051254	20.145983	0.598196	231
7886.361263	12.553490	20.128496	0.623668	232
7887.390620	8.979926	20.132553	0.446040	233
7888.433279	13.752327	20.143505	0.682718	234
7889.458183	9.394913	20.150938	0.466227	235
7890.503100	13.246317	20.120277	0.658357	236
7891.526835	9.561546	20.132267	0.474936	237
7892.575034	12.127004	20.143806	0.602022	238
7893.596758	9.496755	20.142437	0.471480	239
7894.645317	12.720511	20.151516	0.631243	240
7895.665884	9.899667	20.135820	0.491645	241
7896.713217	13.146206	20.138811	0.652780	242
7897.737442	9.426022	20.134716	0.468148	243
7898.782109	12.780543	20.143923	0.634462	244
7899.808025	9.313915	20.152857	0.462164	245
7900.849780	12.771467	20.131369	0.634406	246
7901.879672	9.343081	20.125595	0.464239	247
7902.918282	12.549243	20.128462	0.623458	248
7903.950715	10.922235	20.141054	0.542287	249
7904.986851	12.452584	20.136951	0.618395	250
7906.019219	11.318751	20.136671	0.562096	251
7907.074711	13.994529	20.135727	0.695010	252
7908.086897	12.101820	20.152550	0.600511	253
7909.131921	11.581762	20.134706	0.575214	254
7910.150957	11.456263	20.128687	0.569151	255
7911.208110	10.896337	20.127909	0.541355	0
7912.213632	11.292596	20.143944	0.560595	1
7913.285520	11.504584	20.126741	0.571607	2
7914.275482	11.472892	20.132875	0.569859	3
7915.362195	10.522045	20.136362	0.522540	4
7916.339193	11.066204	20.137909	0.549521	5
7917.435507	12.091307	20.138987	0.600393	6
7918.406869	9.760071	20.116835	0.485169	7
7919.503336	13.294533	20.124569	0.660612	8
7920.480680	8.446464	20.125450	0.419691	9
7921.568947	12.364927	20.122505	0.614483	10
7922.555760	10.150808	20.136923	0.504089	11
7923.633109	12.918368	20.138323	0.641482	12
7924.632013	9.321517	20.134882	0.462954	13
7925.696196	11.684324	20.138458	0.580200	14
7926.722212	10.977180	20.143322	0.544954	15
7927.762790	11.539821	20.133230	0.573173	16
7928.778770	7.796845	20.142071	0.387093	17
7929.829947	11.808680	20.118298	0.586962	18
7930.865349	10.993427	20.141655	0.545806	19
7931.899787	12.145514	20.120371	0.603643	20
7932.917075	9.210168	20.137600	0.457362	21
7933.971194	13.069889	20.138700	0.648994	22
7934.984579	9.556247	20.148148	0.474299	23
7936.043424	11.723087	20.134428	0.582241	24
7937.049499	9.164341	20.117546	0.455540	25
7938.116039	12.594045	20.129599	0.625648	26
7939.115164	9.031806	20.152800	0.448166	27
7940.191856	11.930650	20.137663	0.592455	28
7941.178260	8.359484	20.128361	0.415309	29
7942.267379	11.772854	20.147011	0.584347	30
7943.243310	8.798398	20.147243	0.436705	31
7944.338666	11.594973	20.123844	0.576181	32
7945.313553	9.856092	20.149366	0.489152	33
7946.407389	11.541533	20.144852	0.572927	34
7947.385663	10.950799	20.137278	0.543807	35
7948.472859	10.870084	20.143061	0.539644	36
7949.461483	10.873123	20.125130	0.540276	37
7950.535402	11.935758	20.137074	0.592726	38
7951.538222	10.654988	20.122673	0.529502	39
7952.598416	11.267002	20.130329	0.559703	40
7953.614100	10.760553	20.127916	0.534608	41
7954.663330	11.404613	20.109066	0.567138	42
7955.686140	10.757496	20.125578	0.534519	43
7956.730067	11.250330	20.110016	0.559439	44
7957.759832	9.034065	20.129047	0.448807	45
7958.797242	10.910826	20.123899	0.542183	46
7959.830123	10.972377	20.131647	0.545031	47
7960.865431	11.136519	20.153994	0.552571	48
7961.900522	10.378530	20.138523	0.515357	49
7962.935910	11.598090	20.144150	0.575755	50
7963.970336	9.623944	20.125639	0.478193	51
7965.005563	10.818374	20.131046	0.537398	52
7966.040274	9.285155	20.128508	0.461294	53
7967.074498	11.078998	20.144854	0.549967	54
7968.110256	8.866254	20.138536	0.440263	55
7969.142553	10.797600	20.122850	0.536584	56
7970.178604	9.697150	20.117718	0.482020	57
7971.212839	11.054770	20.133137	0.549083	58
7972.248416	9.928317	20.134918	0.493090	59
7973.283819	11.242380	20.137436	0.558283	60
7974.317200	9.958773	20.147570	0.494292	61
7975.370382	12.694039	20.131050	0.630570	62
7976.385925	10.555519	20.123148	0.524546	63
7977.424721	10.734981	20.129826	0.533287	64
7978.452596	10.983620	20.110540	0.546162	65
7979.498589	10.776123	20.122747	0.535519	66
7980.517623	10.449636	20.153387	0.518505	67
7981.573787	9.786837	20.128481	0.486218	68
7982.581912	10.561938	20.118929	0.524975	69
7983.648530	10.280290	20.136215	0.510537	70
7984.644397	9.526668	20.136093	0.473114	71
7985.723440	10.218943	20.127857	0.507702	72
7986.708274	9.478773	20.130627	0.470863	73
